Fp1 - M1Ref	Fpz - M1Ref	Fp2 - M1Ref	F7 - M1Ref	F3 - M1Ref	Fz - M1Ref	F4 - M1Ref	F8 - M1Ref	FC5 - M1Ref	FC1 - M1Ref	FC2 - M1Ref	FC6 - M1Ref	M1 - M1Ref	T7 - M1Ref	C3 - M1Ref	Cz - M1Ref	C4 - M1Ref	T8 - M1Ref	M2 - M1Ref	CP5 - M1Ref	CP1 - M1Ref	CP2 - M1Ref	CP6 - M1Ref	P7 - M1Ref	P3 - M1Ref	Pz - M1Ref	P4 - M1Ref	P8 - M1Ref	POz - M1Ref	O1 - M1Ref	Oz - M1Ref	O2 - M1Ref	HEOG - M1Ref	VEOG - M1Ref	
-1.470722E+003	4.077063E+001	-3.312738E+003	-6.722483E+003	-1.146262E+004	1.679669E+003	9.144593E+003	-9.911199E+003	-1.227716E+002	5.676515E+003	-2.662872E+001	-1.548015E+003	0.000000E+000	-4.295647E+003	-2.949407E+003	-6.966059E+003	1.002058E+004	1.684101E+003	0.000000E+000	-6.898862E+003	1.948494E+003	3.599033E+003	7.959100E+003	2.534731E+003	3.536747E+003	2.738345E+003	7.386822E+003	-6.478613E+002	-1.350635E+003	-5.218769E+003	3.889062E+003	1.065940E+003	0.000000E+000	0.000000E+000	
-1.479807E+003	3.190665E+001	-3.323993E+003	-6.737618E+003	-1.147291E+004	1.672957E+003	9.133063E+003	-9.924256E+003	-1.361412E+002	5.667430E+003	-3.821442E+001	-1.562543E+003	0.000000E+000	-4.315085E+003	-2.962500E+003	-6.976265E+003	1.000799E+004	1.669371E+003	0.000000E+000	-6.914144E+003	1.937754E+003	3.588533E+003	7.943101E+003	2.535926E+003	3.521593E+003	2.725453E+003	7.370013E+003	-6.453419E+002	-1.366800E+003	-5.232378E+003	4.221627E+003	1.061747E+003	0.000000E+000	0.000000E+000	
-1.478151E+003	3.243996E+001	-3.327468E+003	-6.744477E+003	-1.147547E+004	1.674649E+003	9.128152E+003	-9.933506E+003	-1.430374E+002	5.667780E+003	-4.135911E+001	-1.572658E+003	0.000000E+000	-4.327222E+003	-2.969617E+003	-6.979391E+003	9.999176E+003	1.656075E+003	0.000000E+000	-6.927697E+003	1.930619E+003	3.581434E+003	7.926623E+003	2.519099E+003	3.510762E+003	2.716166E+003	7.355595E+003	-6.783520E+002	-1.380482E+003	-5.247495E+003	4.465533E+003	1.062519E+003	0.000000E+000	0.000000E+000	
-1.468497E+003	4.481643E+001	-3.320260E+003	-6.741719E+003	-1.146640E+004	1.688791E+003	9.134166E+003	-9.930582E+003	-1.413823E+002	5.679623E+003	-3.345141E+001	-1.570782E+003	0.000000E+000	-4.331654E+003	-2.965572E+003	-6.969479E+003	9.999158E+003	1.650889E+003	0.000000E+000	-6.933987E+003	1.931649E+003	3.582390E+003	7.917557E+003	2.478237E+003	3.505484E+003	2.713592E+003	7.345316E+003	-6.928433E+002	-1.389604E+003	-5.267834E+003	4.518203E+003	1.034658E+003	0.000000E+000	0.000000E+000	
-1.461932E+003	5.246667E+001	-3.314614E+003	-6.739586E+003	-1.146006E+004	1.698096E+003	9.137881E+003	-9.929644E+003	-1.384583E+002	5.687089E+003	-3.122622E+001	-1.571039E+003	0.000000E+000	-4.335167E+003	-2.962721E+003	-6.962638E+003	1.000120E+004	1.650944E+003	0.000000E+000	-6.936635E+003	1.934131E+003	3.586565E+003	7.914707E+003	2.480186E+003	3.503148E+003	2.713647E+003	7.341031E+003	-6.861126E+002	-1.393337E+003	-5.283282E+003	4.494185E+003	1.011707E+003	0.000000E+000	0.000000E+000	
-1.460828E+003	5.417694E+001	-3.312830E+003	-6.739218E+003	-1.146024E+004	1.697912E+003	9.137973E+003	-9.930233E+003	-1.395617E+002	5.687806E+003	-3.069291E+001	-1.570230E+003	0.000000E+000	-4.335167E+003	-2.962022E+003	-6.962712E+003	1.000556E+004	1.655394E+003	0.000000E+000	-6.932883E+003	1.936964E+003	3.590445E+003	7.917870E+003	2.492452E+003	3.506348E+003	2.716148E+003	7.344304E+003	-7.036566E+002	-1.392270E+003	-5.285250E+003	4.477781E+003	9.969219E+002	0.000000E+000	0.000000E+000	
-1.463568E+003	4.939554E+001	-3.315441E+003	-6.739825E+003	-1.146199E+004	1.693498E+003	9.137550E+003	-9.929166E+003	-1.379434E+002	5.684993E+003	-3.313878E+001	-1.569145E+003	0.000000E+000	-4.331103E+003	-2.962464E+003	-6.964845E+003	1.000558E+004	1.663688E+003	0.000000E+000	-6.928488E+003	1.937846E+003	3.592303E+003	7.924803E+003	2.514152E+003	3.511276E+003	2.718410E+003	7.350906E+003	-7.355264E+002	-1.384197E+003	-5.275116E+003	4.466802E+003	9.807756E+002	0.000000E+000	0.000000E+000	
-1.470648E+003	4.240734E+001	-3.318384E+003	-6.736864E+003	-1.146420E+004	1.685444E+003	9.135049E+003	-9.924826E+003	-1.368952E+002	5.678520E+003	-3.707424E+001	-1.564603E+003	0.000000E+000	-4.322900E+003	-2.961599E+003	-6.969884E+003	1.000576E+004	1.672092E+003	0.000000E+000	-6.922254E+003	1.938472E+003	3.590592E+003	7.932692E+003	2.523182E+003	3.516407E+003	2.723302E+003	7.360543E+003	-7.897586E+002	-1.375977E+003	-5.255954E+003	4.463161E+003	9.843799E+002	0.000000E+000	0.000000E+000	
-1.477765E+003	3.466515E+001	-3.320002E+003	-6.736882E+003	-1.146911E+004	1.674777E+003	9.131371E+003	-9.921553E+003	-1.343390E+002	5.671016E+003	-4.483482E+001	-1.562635E+003	0.000000E+000	-4.315563E+003	-2.964137E+003	-6.975695E+003	1.000298E+004	1.677462E+003	0.000000E+000	-6.917270E+003	1.934021E+003	3.586749E+003	7.937124E+003	2.513177E+003	3.519184E+003	2.722732E+003	7.366722E+003	-8.077624E+002	-1.370423E+003	-5.233206E+003	4.485818E+003	9.938875E+002	0.000000E+000	0.000000E+000	
-1.484000E+003	2.841255E+001	-3.325574E+003	-6.738574E+003	-1.147398E+004	1.666042E+003	9.127656E+003	-9.923594E+003	-1.359757E+002	5.663624E+003	-5.290803E+001	-1.565118E+003	0.000000E+000	-4.312106E+003	-2.967061E+003	-6.981230E+003	9.999912E+003	1.679467E+003	0.000000E+000	-6.916828E+003	1.930104E+003	3.581692E+003	7.938099E+003	2.504461E+003	3.519349E+003	2.719624E+003	7.369112E+003	-7.648953E+002	-1.367591E+003	-5.212241E+003	4.497569E+003	9.969955E+002	0.000000E+000	0.000000E+000	
-1.489590E+003	2.074392E+001	-3.331974E+003	-6.744661E+003	-1.148027E+004	1.657932E+003	9.121845E+003	-9.929221E+003	-1.420444E+002	5.657316E+003	-6.026403E+001	-1.571003E+003	0.000000E+000	-4.317071E+003	-2.971548E+003	-6.987410E+003	9.996510E+003	1.680956E+003	0.000000E+000	-6.920139E+003	1.926573E+003	3.581140E+003	7.935580E+003	2.537508E+003	3.514586E+003	2.714640E+003	7.364404E+003	-7.079783E+002	-1.371673E+003	-5.208839E+003	4.512005E+003	1.012204E+003	0.000000E+000	0.000000E+000	
-1.491558E+003	1.826127E+001	-3.334420E+003	-6.749204E+003	-1.148259E+004	1.659238E+003	9.117137E+003	-9.935345E+003	-1.468993E+002	5.656783E+003	-6.122031E+001	-1.575545E+003	0.000000E+000	-4.326119E+003	-2.975833E+003	-6.989708E+003	9.995406E+003	1.680552E+003	0.000000E+000	-6.924277E+003	1.924716E+003	3.580165E+003	7.930614E+003	2.565350E+003	3.510817E+003	2.711992E+003	7.358741E+003	-6.684949E+002	-1.377319E+003	-5.210752E+003	4.524106E+003	1.015698E+003	0.000000E+000	0.000000E+000	
-1.484956E+003	2.478972E+001	-3.331845E+003	-6.749314E+003	-1.147924E+004	1.666557E+003	9.117450E+003	-9.936301E+003	-1.481315E+002	5.662557E+003	-5.962038E+001	-1.578506E+003	0.000000E+000	-4.332850E+003	-2.976091E+003	-6.984909E+003	9.992795E+003	1.674226E+003	0.000000E+000	-6.930934E+003	1.924311E+003	3.580037E+003	7.921879E+003	2.591648E+003	3.505226E+003	2.708718E+003	7.350594E+003	-6.711063E+002	-1.385687E+003	-5.222944E+003	4.534643E+003	1.017316E+003	0.000000E+000	0.000000E+000	
-1.475025E+003	3.898680E+001	-3.322853E+003	-6.747457E+003	-1.146913E+004	1.681858E+003	9.122139E+003	-9.932733E+003	-1.452994E+002	5.673334E+003	-5.294481E+001	-1.577972E+003	0.000000E+000	-4.336638E+003	-2.971493E+003	-6.973709E+003	9.992869E+003	1.672203E+003	0.000000E+000	-6.937297E+003	1.926224E+003	3.581581E+003	7.912923E+003	2.585303E+003	3.502560E+003	2.708240E+003	7.343458E+003	-7.040244E+002	-1.392509E+003	-5.240654E+003	4.533172E+003	1.005326E+003	0.000000E+000	0.000000E+000	
-1.465058E+003	4.900935E+001	-3.316122E+003	-6.742197E+003	-1.146098E+004	1.693940E+003	9.128226E+003	-9.931060E+003	-1.408306E+002	5.683062E+003	-4.579110E+001	-1.575710E+003	0.000000E+000	-4.338183E+003	-2.967024E+003	-6.967291E+003	9.995646E+003	1.672276E+003	0.000000E+000	-6.940552E+003	1.929865E+003	3.584763E+003	7.909650E+003	2.563198E+003	3.500279E+003	2.708590E+003	7.338401E+003	-7.174675E+002	-1.397897E+003	-5.257517E+003	4.523444E+003	9.835708E+002	0.000000E+000	0.000000E+000	
-1.464065E+003	5.105064E+001	-3.313455E+003	-6.741020E+003	-1.145877E+004	1.697140E+003	9.129826E+003	-9.930251E+003	-1.396721E+002	5.684644E+003	-4.538652E+001	-1.574975E+003	0.000000E+000	-4.338257E+003	-2.966473E+003	-6.964919E+003	9.996767E+003	1.677849E+003	0.000000E+000	-6.938749E+003	1.931520E+003	3.587135E+003	7.911673E+003	2.532432E+003	3.501162E+003	2.708847E+003	7.336893E+003	-6.875286E+002	-1.397493E+003	-5.263623E+003	4.507573E+003	9.706610E+002	0.000000E+000	0.000000E+000	
-1.468570E+003	4.529457E+001	-3.316526E+003	-6.744293E+003	-1.146480E+004	1.689802E+003	9.125615E+003	-9.931667E+003	-1.430742E+002	5.681260E+003	-5.204370E+001	-1.576189E+003	0.000000E+000	-4.337778E+003	-2.968771E+003	-6.969112E+003	9.998956E+003	1.686565E+003	0.000000E+000	-6.935108E+003	1.933175E+003	3.589121E+003	7.914431E+003	2.539880E+003	3.502449E+003	2.710337E+003	7.340865E+003	-6.649088E+002	-1.395360E+003	-5.258437E+003	4.507941E+003	9.613741E+002	0.000000E+000	0.000000E+000	
-1.478096E+003	3.540075E+001	-3.321970E+003	-6.746041E+003	-1.147069E+004	1.678290E+003	9.120392E+003	-9.932752E+003	-1.449132E+002	5.671255E+003	-5.752392E+001	-1.577163E+003	0.000000E+000	-4.334450E+003	-2.969930E+003	-6.977019E+003	9.996491E+003	1.697802E+003	0.000000E+000	-6.929886E+003	1.930031E+003	3.587705E+003	7.920666E+003	2.564872E+003	3.507488E+003	2.710760E+003	7.346897E+003	-6.831702E+002	-1.387893E+003	-5.241904E+003	4.517504E+003	9.683255E+002	0.000000E+000	0.000000E+000	
-1.486464E+003	2.532303E+001	-3.329031E+003	-6.745728E+003	-1.147738E+004	1.666962E+003	9.117229E+003	-9.932918E+003	-1.449132E+002	5.663292E+003	-6.579942E+001	-1.575508E+003	0.000000E+000	-4.326781E+003	-2.975300E+003	-6.984099E+003	9.993310E+003	1.706224E+003	0.000000E+000	-6.927274E+003	1.924495E+003	3.581673E+003	7.925244E+003	2.565074E+003	3.509529E+003	2.710134E+003	7.354070E+003	-6.814231E+002	-1.381530E+003	-5.222448E+003	4.534018E+003	9.805548E+002	0.000000E+000	0.000000E+000	
-1.496027E+003	1.381089E+001	-3.334475E+003	-6.750694E+003	-1.148353E+004	1.655780E+003	9.109303E+003	-9.933782E+003	-1.483705E+002	5.652387E+003	-7.365195E+001	-1.578138E+003	0.000000E+000	-4.324924E+003	-2.979842E+003	-6.990738E+003	9.984979E+003	1.711337E+003	0.000000E+000	-6.928801E+003	1.916422E+003	3.573012E+003	7.925061E+003	2.570701E+003	3.507102E+003	2.705647E+003	7.354713E+003	-6.225751E+002	-1.381365E+003	-5.207166E+003	4.552058E+003	1.001795E+003	0.000000E+000	0.000000E+000	
-1.502040E+003	8.459400E+000	-3.340985E+003	-6.756928E+003	-1.149092E+004	1.646659E+003	9.103639E+003	-9.938250E+003	-1.542553E+002	5.646172E+003	-8.102634E+001	-1.584078E+003	0.000000E+000	-4.328565E+003	-2.987014E+003	-6.997726E+003	9.980217E+003	1.713948E+003	0.000000E+000	-6.933490E+003	1.911273E+003	3.568396E+003	7.921566E+003	2.583335E+003	3.502045E+003	2.699652E+003	7.350207E+003	-5.468267E+002	-1.387029E+003	-5.202218E+003	4.578135E+003	1.017887E+003	0.000000E+000	0.000000E+000	
-1.507005E+003	7.098540E+000	-3.344130E+003	-6.760054E+003	-1.149353E+004	1.646530E+003	9.100973E+003	-9.943014E+003	-1.582460E+002	5.641886E+003	-8.492502E+001	-1.588124E+003	0.000000E+000	-4.336785E+003	-2.989828E+003	-6.997597E+003	9.978543E+003	1.718601E+003	0.000000E+000	-6.935660E+003	1.909489E+003	3.567973E+003	7.917576E+003	2.588338E+003	3.496840E+003	2.696783E+003	7.344249E+003	-5.049158E+002	-1.390155E+003	-5.204756E+003	4.592314E+003	1.031606E+003	0.000000E+000	0.000000E+000	
-1.502058E+003	1.037196E+001	-3.341721E+003	-6.762739E+003	-1.149075E+004	1.652985E+003	9.100826E+003	-9.946600E+003	-1.607470E+002	5.648121E+003	-8.433654E+001	-1.591765E+003	0.000000E+000	-4.344932E+003	-2.991814E+003	-6.995575E+003	9.978709E+003	1.722683E+003	0.000000E+000	-6.940699E+003	1.913222E+003	3.569775E+003	7.912298E+003	2.597017E+003	3.494523E+003	2.694521E+003	7.338714E+003	-5.003000E+002	-1.398927E+003	-5.216728E+003	4.601583E+003	1.034640E+003	0.000000E+000	0.000000E+000	
-1.492183E+003	2.195766E+001	-3.335909E+003	-6.760955E+003	-1.148439E+004	1.665123E+003	9.105000E+003	-9.946545E+003	-1.598275E+002	5.658088E+003	-7.716444E+001	-1.593953E+003	0.000000E+000	-4.352012E+003	-2.989920E+003	-6.990002E+003	9.978782E+003	1.723750E+003	0.000000E+000	-6.948993E+003	1.913369E+003	3.570731E+003	7.901650E+003	2.602461E+003	3.490698E+003	2.692645E+003	7.329776E+003	-5.065710E+002	-1.407295E+003	-5.239311E+003	4.597537E+003	1.033812E+003	0.000000E+000	0.000000E+000	
-1.483227E+003	3.321234E+001	-3.329031E+003	-6.757902E+003	-1.147670E+004	1.676653E+003	9.110259E+003	-9.944503E+003	-1.566092E+002	5.668644E+003	-6.949581E+001	-1.591691E+003	0.000000E+000	-4.355782E+003	-2.985580E+003	-6.980679E+003	9.978451E+003	1.729800E+003	0.000000E+000	-6.954142E+003	1.913829E+003	3.572019E+003	7.894625E+003	2.571308E+003	3.487112E+003	2.691763E+003	7.321887E+003	-4.867098E+002	-1.414081E+003	-5.263310E+003	4.578687E+003	1.021528E+003	0.000000E+000	0.000000E+000	
-1.478961E+003	3.672483E+001	-3.326420E+003	-6.756781E+003	-1.147170E+004	1.683917E+003	9.112448E+003	-9.943032E+003	-1.542553E+002	5.673279E+003	-6.846598E+001	-1.591121E+003	0.000000E+000	-4.356297E+003	-2.982067E+003	-6.976118E+003	9.979205E+003	1.741220E+003	0.000000E+000	-6.953553E+003	1.915502E+003	3.573214E+003	7.892859E+003	2.538372E+003	3.486045E+003	2.692498E+003	7.319883E+003	-4.553180E+002	-1.415147E+003	-5.279953E+003	4.555939E+003	1.008508E+003	0.000000E+000	0.000000E+000	
-1.484275E+003	3.324912E+001	-3.329123E+003	-6.759190E+003	-1.147628E+004	1.678363E+003	9.108917E+003	-9.945313E+003	-1.557265E+002	5.667577E+003	-7.339449E+001	-1.592243E+003	0.000000E+000	-4.357786E+003	-2.985672E+003	-6.979759E+003	9.979554E+003	1.753689E+003	0.000000E+000	-6.952561E+003	1.915613E+003	3.572331E+003	7.897493E+003	2.539567E+003	3.486376E+003	2.692075E+003	7.322530E+003	-4.131865E+002	-1.412849E+003	-5.281902E+003	4.547553E+003	1.004830E+003	0.000000E+000	0.000000E+000	
-1.492661E+003	2.317140E+001	-3.335450E+003	-6.761176E+003	-1.148329E+004	1.666116E+003	9.103639E+003	-9.947390E+003	-1.592022E+002	5.658953E+003	-8.073210E+001	-1.592997E+003	0.000000E+000	-4.354715E+003	-2.989865E+003	-6.988053E+003	9.979739E+003	1.765753E+003	0.000000E+000	-6.949011E+003	1.913590E+003	3.569793E+003	7.900712E+003	2.568678E+003	3.489024E+003	2.691579E+003	7.327146E+003	-4.020790E+002	-1.408692E+003	-5.273645E+003	4.548436E+003	1.012903E+003	0.000000E+000	0.000000E+000	
-1.501452E+003	1.274427E+001	-3.340562E+003	-6.762500E+003	-1.149039E+004	1.653923E+003	9.098765E+003	-9.945422E+003	-1.597723E+002	5.649188E+003	-8.858463E+001	-1.593843E+003	0.000000E+000	-4.349070E+003	-2.992715E+003	-6.996807E+003	9.977660E+003	1.781164E+003	0.000000E+000	-6.943034E+003	1.911218E+003	3.566777E+003	7.908197E+003	2.587767E+003	3.494303E+003	2.692167E+003	7.336286E+003	-4.281744E+002	-1.401796E+003	-5.256524E+003	4.554173E+003	1.026824E+003	0.000000E+000	0.000000E+000	
-1.510040E+003	3.788340E+000	-3.346024E+003	-6.763235E+003	-1.149651E+004	1.643367E+003	9.092513E+003	-9.946600E+003	-1.634319E+002	5.641684E+003	-9.577513E+001	-1.593751E+003	0.000000E+000	-4.343994E+003	-2.995823E+003	-7.005137E+003	9.972437E+003	1.792216E+003	0.000000E+000	-6.942740E+003	1.905682E+003	3.562474E+003	7.909815E+003	2.580080E+003	3.494670E+003	2.690770E+003	7.341031E+003	-4.160554E+002	-1.397511E+003	-5.237730E+003	4.577897E+003	1.046097E+003	0.000000E+000	0.000000E+000	
-1.515410E+003	-2.078070E+000	-3.348893E+003	-6.766362E+003	-1.150076E+004	1.637151E+003	9.090508E+003	-9.947519E+003	-1.642963E+002	5.635671E+003	-1.009243E+002	-1.596583E+003	0.000000E+000	-4.344417E+003	-2.999538E+003	-7.008301E+003	9.967454E+003	1.801944E+003	0.000000E+000	-6.944414E+003	1.899632E+003	3.556920E+003	7.908712E+003	2.559300E+003	3.491213E+003	2.686117E+003	7.338861E+003	-3.719194E+002	-1.398412E+003	-5.230594E+003	4.598622E+003	1.068753E+003	0.000000E+000	0.000000E+000	
-1.518444E+003	-3.733170E+000	-3.352240E+003	-6.770554E+003	-1.150434E+004	1.633657E+003	9.085910E+003	-9.952374E+003	-1.691328E+002	5.632637E+003	-1.041977E+002	-1.600390E+003	0.000000E+000	-4.350063E+003	-3.003455E+003	-7.013229E+003	9.964769E+003	1.812096E+003	0.000000E+000	-6.948478E+003	1.897020E+003	3.555228E+003	7.904869E+003	2.566085E+003	3.486045E+003	2.682163E+003	7.332682E+003	-3.124093E+002	-1.404996E+003	-5.234051E+003	4.609619E+003	1.079677E+003	0.000000E+000	0.000000E+000	
-1.516752E+003	-2.353920E+000	-3.354263E+003	-6.773552E+003	-1.150407E+004	1.635680E+003	9.084550E+003	-9.957119E+003	-1.728844E+002	5.633924E+003	-1.057425E+002	-1.607764E+003	0.000000E+000	-4.359699E+003	-3.006894E+003	-7.012641E+003	9.963757E+003	1.824693E+003	0.000000E+000	-6.953719E+003	1.898860E+003	3.556737E+003	7.898101E+003	2.587914E+003	3.481025E+003	2.680012E+003	7.323855E+003	-2.847140E+002	-1.411488E+003	-5.249168E+003	4.617251E+003	1.086610E+003	0.000000E+000	0.000000E+000	
-1.510518E+003	5.517000E+000	-3.349757E+003	-6.775888E+003	-1.149906E+004	1.645133E+003	9.086959E+003	-9.958019E+003	-1.734545E+002	5.641133E+003	-1.026530E+002	-1.609199E+003	0.000000E+000	-4.367993E+003	-3.006931E+003	-7.006351E+003	9.964089E+003	1.832839E+003	0.000000E+000	-6.959972E+003	1.900349E+003	3.557380E+003	7.889457E+003	2.613385E+003	3.476685E+003	2.678356E+003	7.315984E+003	-3.142116E+002	-1.419892E+003	-5.267577E+003	4.622088E+003	1.092550E+003	0.000000E+000	0.000000E+000	
-1.500183E+003	1.802220E+001	-3.341114E+003	-6.770738E+003	-1.149016E+004	1.659918E+003	9.093267E+003	-9.954765E+003	-1.695006E+002	5.654134E+003	-9.356832E+001	-1.606275E+003	0.000000E+000	-4.371046E+003	-3.001579E+003	-6.997616E+003	9.966001E+003	1.840232E+003	0.000000E+000	-6.963374E+003	1.904377E+003	3.561095E+003	7.884492E+003	2.613219E+003	3.475820E+003	2.679350E+003	7.311018E+003	-3.704114E+002	-1.424857E+003	-5.291447E+003	4.609435E+003	1.076679E+003	0.000000E+000	0.000000E+000	
-1.490969E+003	2.775051E+001	-3.334199E+003	-6.764449E+003	-1.148136E+004	1.671872E+003	9.101046E+003	-9.950737E+003	-1.638365E+002	5.663145E+003	-8.656173E+001	-1.602983E+003	0.000000E+000	-4.370071E+003	-2.995363E+003	-6.988881E+003	9.967141E+003	1.849777E+003	0.000000E+000	-6.964588E+003	1.906197E+003	3.564755E+003	7.883260E+003	2.590084E+003	3.476446E+003	2.681262E+003	7.309455E+003	-4.202851E+002	-1.425501E+003	-5.308494E+003	4.592902E+003	1.063586E+003	0.000000E+000	0.000000E+000	
-1.490399E+003	2.787924E+001	-3.332250E+003	-6.763419E+003	-1.148119E+004	1.671302E+003	9.100531E+003	-9.948126E+003	-1.626412E+002	5.664396E+003	-8.551350E+001	-1.600335E+003	0.000000E+000	-4.367919E+003	-2.993782E+003	-6.989193E+003	9.969844E+003	1.856894E+003	0.000000E+000	-6.963006E+003	1.907319E+003	3.566336E+003	7.885411E+003	2.570462E+003	3.476409E+003	2.681428E+003	7.312195E+003	-4.222528E+002	-1.423018E+003	-5.312779E+003	4.583744E+003	1.061673E+003	0.000000E+000	0.000000E+000	
-1.497001E+003	1.978764E+001	-3.338410E+003	-6.766215E+003	-1.148647E+004	1.662493E+003	9.096798E+003	-9.949689E+003	-1.634135E+002	5.655771E+003	-9.143508E+001	-1.602523E+003	0.000000E+000	-4.364720E+003	-2.997313E+003	-6.995520E+003	9.970010E+003	1.864158E+003	0.000000E+000	-6.956937E+003	1.908275E+003	3.567311E+003	7.891315E+003	2.588999E+003	3.478873E+003	2.682936E+003	7.318006E+003	-4.161657E+002	-1.418899E+003	-5.307612E+003	4.583211E+003	1.064468E+003	0.000000E+000	0.000000E+000	
-1.510040E+003	6.510060E+000	-3.346502E+003	-6.771051E+003	-1.149693E+004	1.647119E+003	9.089497E+003	-9.952889E+003	-1.682317E+002	5.643634E+003	-1.016048E+002	-1.605006E+003	0.000000E+000	-4.362384E+003	-3.003381E+003	-7.006075E+003	9.968833E+003	1.867321E+003	0.000000E+000	-6.951678E+003	1.904450E+003	3.564239E+003	7.896997E+003	2.659010E+003	3.483048E+003	2.681722E+003	7.323008E+003	-4.168094E+002	-1.412812E+003	-5.291594E+003	4.588397E+003	1.073369E+003	0.000000E+000	0.000000E+000	
-1.519584E+003	-4.671060E+000	-3.353196E+003	-6.772577E+003	-1.150454E+004	1.633639E+003	9.083667E+003	-9.954121E+003	-1.712293E+002	5.632526E+003	-1.105791E+002	-1.605741E+003	0.000000E+000	-4.359772E+003	-3.007721E+003	-7.016337E+003	9.963886E+003	1.863146E+003	0.000000E+000	-6.951328E+003	1.898289E+003	3.559495E+003	7.900344E+003	2.713095E+003	3.484776E+003	2.681280E+003	7.329960E+003	-4.488447E+002	-1.405640E+003	-5.268533E+003	4.612212E+003	1.098214E+003	0.000000E+000	0.000000E+000	
-1.525910E+003	-1.112595E+001	-3.356911E+003	-6.774472E+003	-1.151061E+004	1.625363E+003	9.079419E+003	-9.955923E+003	-1.730499E+002	5.627175E+003	-1.155076E+002	-1.606532E+003	0.000000E+000	-4.357474E+003	-3.010406E+003	-7.022369E+003	9.956898E+003	1.852112E+003	0.000000E+000	-6.953351E+003	1.893214E+003	3.551955E+003	7.897678E+003	2.775364E+003	3.481852E+003	2.677253E+003	7.328801E+003	-4.472632E+002	-1.408692E+003	-5.259559E+003	4.634629E+003	1.107519E+003	0.000000E+000	0.000000E+000	
-1.530122E+003	-1.531887E+001	-3.362133E+003	-6.780301E+003	-1.151449E+004	1.620931E+003	9.073369E+003	-9.960797E+003	-1.760475E+002	5.622393E+003	-1.206936E+002	-1.611442E+003	0.000000E+000	-4.363542E+003	-3.015721E+003	-7.026396E+003	9.953477E+003	1.834053E+003	0.000000E+000	-6.958648E+003	1.889407E+003	3.549178E+003	7.893430E+003	2.857052E+003	3.476795E+003	2.671681E+003	7.321464E+003	-4.091224E+002	-1.415000E+003	-5.264322E+003	4.647466E+003	1.113754E+003	0.000000E+000	0.000000E+000	
-1.528669E+003	-1.382928E+001	-3.363035E+003	-6.782600E+003	-1.151291E+004	1.623727E+003	9.072247E+003	-9.965780E+003	-1.818036E+002	5.622577E+003	-1.224958E+002	-1.616812E+003	0.000000E+000	-4.371303E+003	-3.018296E+003	-7.026764E+003	9.952466E+003	1.814155E+003	0.000000E+000	-6.962565E+003	1.889021E+003	3.549767E+003	7.887986E+003	2.920167E+003	3.472216E+003	2.667819E+003	7.315230E+003	-3.915967E+002	-1.421529E+003	-5.273461E+003	4.655686E+003	1.110682E+003	0.000000E+000	0.000000E+000	
-1.521938E+003	-7.172100E+000	-3.360055E+003	-6.784090E+003	-1.150800E+004	1.634117E+003	9.074086E+003	-9.965523E+003	-1.815461E+002	5.629142E+003	-1.172363E+002	-1.619387E+003	0.000000E+000	-4.378714E+003	-3.017597E+003	-7.022498E+003	9.951730E+003	1.792308E+003	0.000000E+000	-6.967328E+003	1.891835E+003	3.552911E+003	7.881917E+003	2.971548E+003	3.468207E+003	2.666348E+003	7.307340E+003	-4.119360E+002	-1.428848E+003	-5.289130E+003	4.659511E+003	1.100053E+003	0.000000E+000	0.000000E+000	
-1.508771E+003	6.270990E+000	-3.349444E+003	-6.776550E+003	-1.149704E+004	1.650539E+003	9.081810E+003	-9.961110E+003	-1.776658E+002	5.644149E+003	-1.060367E+002	-1.615580E+003	0.000000E+000	-4.380866E+003	-3.011399E+003	-7.011170E+003	9.956917E+003	1.775922E+003	0.000000E+000	-6.970086E+003	1.897333E+003	3.558428E+003	7.877154E+003	2.969930E+003	3.466993E+003	2.670154E+003	7.302540E+003	-4.757677E+002	-1.430816E+003	-5.311915E+003	4.649930E+003	1.076440E+003	0.000000E+000	0.000000E+000	
-1.497866E+003	1.918077E+001	-3.338300E+003	-6.769506E+003	-1.148695E+004	1.663725E+003	9.091078E+003	-9.955427E+003	-1.706224E+002	5.656102E+003	-9.518665E+001	-1.610357E+003	0.000000E+000	-4.377556E+003	-3.003823E+003	-7.000742E+003	9.961274E+003	1.768916E+003	0.000000E+000	-6.970288E+003	1.901471E+003	3.562419E+003	7.876842E+003	2.934308E+003	3.468961E+003	2.674108E+003	7.301768E+003	-5.361789E+002	-1.430999E+003	-5.330434E+003	4.640165E+003	1.053931E+003	0.000000E+000	0.000000E+000	
-1.495383E+003	2.182893E+001	-3.336866E+003	-6.767355E+003	-1.148577E+004	1.664994E+003	9.091060E+003	-9.952043E+003	-1.678272E+002	5.658383E+003	-9.301662E+001	-1.607838E+003	0.000000E+000	-4.375717E+003	-3.001745E+003	-6.999565E+003	9.963997E+003	1.769431E+003	0.000000E+000	-6.967383E+003	1.904303E+003	3.566593E+003	7.879950E+003	2.898411E+003	3.469586E+003	2.675065E+003	7.303074E+003	-5.137063E+002	-1.431441E+003	-5.338691E+003	4.629922E+003	1.038042E+003	0.000000E+000	0.000000E+000	
-1.500440E+003	1.750728E+001	-3.339275E+003	-6.768679E+003	-1.148788E+004	1.659422E+003	9.088743E+003	-9.951768E+003	-1.685811E+002	5.653307E+003	-9.731988E+001	-1.608150E+003	0.000000E+000	-4.372480E+003	-3.002774E+003	-7.002508E+003	9.966369E+003	1.784842E+003	0.000000E+000	-6.960045E+003	1.908606E+003	3.570437E+003	7.889513E+003	2.889566E+003	3.476151E+003	2.678136E+003	7.311589E+003	-5.413464E+002	-1.423147E+003	-5.330379E+003	4.632864E+003	1.028185E+003	0.000000E+000	0.000000E+000	
-1.509709E+003	9.470850E+000	-3.342180E+003	-6.769157E+003	-1.149265E+004	1.648112E+003	9.085028E+003	-9.950462E+003	-1.679007E+002	5.647845E+003	-1.042161E+002	-1.606550E+003	0.000000E+000	-4.366117E+003	-3.004282E+003	-7.009367E+003	9.969054E+003	1.804648E+003	0.000000E+000	-6.953700E+003	1.907319E+003	3.569701E+003	7.896538E+003	2.911836E+003	3.482331E+003	2.681869E+003	7.320728E+003	-6.067597E+002	-1.413639E+003	-5.312430E+003	4.644799E+003	1.030355E+003	0.000000E+000	0.000000E+000	
-1.517469E+003	-1.783830E+000	-3.346171E+003	-6.769138E+003	-1.149846E+004	1.637813E+003	9.082527E+003	-9.949560E+003	-1.677904E+002	5.638025E+003	-1.100090E+002	-1.605778E+003	0.000000E+000	-4.358540E+003	-3.006269E+003	-7.016098E+003	9.961385E+003	1.833777E+003	0.000000E+000	-6.952027E+003	1.900202E+003	3.561463E+003	7.899204E+003	2.916691E+003	3.482937E+003	2.679258E+003	7.326227E+003	-6.353561E+002	-1.408858E+003	-5.292054E+003	4.668743E+003	1.047163E+003	0.000000E+000	0.000000E+000	
-1.524586E+003	-9.967381E+000	-3.354079E+003	-6.771732E+003	-1.150445E+004	1.626412E+003	9.076183E+003	-9.953312E+003	-1.713212E+002	5.629455E+003	-1.162800E+002	-1.607764E+003	0.000000E+000	-4.357492E+003	-3.009928E+003	-7.024888E+003	9.956696E+003	1.866714E+003	0.000000E+000	-6.953517E+003	1.891908E+003	3.554401E+003	7.898229E+003	2.928700E+003	3.481393E+003	2.674550E+003	7.326484E+003	-5.984658E+002	-1.408950E+003	-5.279126E+003	4.684926E+003	1.050014E+003	0.000000E+000	0.000000E+000	
-1.530434E+003	-1.587057E+001	-3.359982E+003	-6.778076E+003	-1.151128E+004	1.620269E+003	9.069838E+003	-9.958517E+003	-1.775371E+002	5.623313E+003	-1.230475E+002	-1.614182E+003	0.000000E+000	-4.363616E+003	-3.016567E+003	-7.032998E+003	9.953349E+003	1.903144E+003	0.000000E+000	-6.954491E+003	1.889370E+003	3.550539E+003	7.896023E+003	2.965057E+003	3.477126E+003	2.669676E+003	7.321887E+003	-5.685636E+002	-1.414724E+003	-5.280063E+003	4.704898E+003	1.055568E+003	0.000000E+000	0.000000E+000	
-1.531299E+003	-1.730499E+001	-3.361435E+003	-6.783446E+003	-1.151190E+004	1.620453E+003	9.065718E+003	-9.963353E+003	-1.815645E+002	5.622779E+003	-1.253646E+002	-1.618375E+003	0.000000E+000	-4.371487E+003	-3.019289E+003	-7.034138E+003	9.950222E+003	1.940292E+003	0.000000E+000	-6.960008E+003	1.887274E+003	3.550024E+003	7.889825E+003	3.002039E+003	3.472878E+003	2.667010E+003	7.315947E+003	-5.707705E+002	-1.420517E+003	-5.288228E+003	4.717550E+003	1.056855E+003	0.000000E+000	0.000000E+000	
-1.521276E+003	-5.774460E+000	-3.354410E+003	-6.778848E+003	-1.150502E+004	1.633418E+003	9.071824E+003	-9.960760E+003	-1.785117E+002	5.632949E+003	-1.166846E+002	-1.616279E+003	0.000000E+000	-4.373841E+003	-3.014434E+003	-7.025808E+003	9.953312E+003	1.974148E+003	0.000000E+000	-6.962528E+003	1.891467E+003	3.553684E+003	7.885411E+003	3.012392E+003	3.471664E+003	2.669345E+003	7.312655E+003	-6.974224E+002	-1.423404E+003	-5.301929E+003	4.726285E+003	1.048561E+003	0.000000E+000	0.000000E+000	
-1.506159E+003	1.002255E+001	-3.342033E+003	-6.771621E+003	-1.149175E+004	1.650907E+003	9.082655E+003	-9.954600E+003	-1.718362E+002	5.648047E+003	-1.043633E+002	-1.613631E+003	0.000000E+000	-4.375901E+003	-3.007390E+003	-7.013964E+003	9.956917E+003	1.999361E+003	0.000000E+000	-6.966243E+003	1.896781E+003	3.556221E+003	7.879086E+003	2.980946E+003	3.470506E+003	2.671368E+003	7.305814E+003	-7.806371E+002	-1.427873E+003	-5.324273E+003	4.715362E+003	1.028424E+003	0.000000E+000	0.000000E+000	
-1.496983E+003	2.124045E+001	-3.333684E+003	-6.765920E+003	-1.148400E+004	1.662235E+003	9.089754E+003	-9.951142E+003	-1.683053E+002	5.659063E+003	-9.575673E+001	-1.607783E+003	0.000000E+000	-4.377703E+003	-3.000476E+003	-7.004586E+003	9.960337E+003	2.019700E+003	0.000000E+000	-6.966996E+003	1.901544E+003	3.561058E+003	7.876290E+003	2.939770E+003	3.469880E+003	2.671938E+003	7.301603E+003	-8.033672E+002	-1.430080E+003	-5.346911E+003	4.701165E+003	9.983012E+002	0.000000E+000	0.000000E+000	
-1.497130E+003	2.247258E+001	-3.334420E+003	-6.767061E+003	-1.148272E+004	1.665049E+003	9.089166E+003	-9.952062E+003	-1.676616E+002	5.658566E+003	-9.636360E+001	-1.610431E+003	0.000000E+000	-4.378696E+003	-3.001322E+003	-7.003814E+003	9.963923E+003	2.039911E+003	0.000000E+000	-6.963392E+003	1.905554E+003	3.563633E+003	7.878662E+003	2.929380E+003	3.471076E+003	2.675175E+003	7.303681E+003	-7.881219E+002	-1.429823E+003	-5.355224E+003	4.687482E+003	9.748539E+002	0.000000E+000	0.000000E+000	
-1.499410E+003	1.872102E+001	-3.335505E+003	-6.766380E+003	-1.148410E+004	1.659109E+003	9.088320E+003	-9.952411E+003	-1.692616E+002	5.655514E+003	-9.914050E+001	-1.608297E+003	0.000000E+000	-4.376655E+003	-3.001597E+003	-7.007547E+003	9.966461E+003	2.062788E+003	0.000000E+000	-6.958408E+003	1.907264E+003	3.564442E+003	7.885264E+003	2.947844E+003	3.475085E+003	2.677492E+003	7.309400E+003	-8.211687E+002	-1.423404E+003	-5.352612E+003	4.681138E+003	9.575674E+002	0.000000E+000	0.000000E+000	
-1.504909E+003	1.136502E+001	-3.337987E+003	-6.765681E+003	-1.148812E+004	1.652286E+003	9.086923E+003	-9.949028E+003	-1.664847E+002	5.650328E+003	-1.029840E+002	-1.606587E+003	0.000000E+000	-4.371266E+003	-3.001138E+003	-7.012015E+003	9.963739E+003	2.086014E+003	0.000000E+000	-6.953369E+003	1.900699E+003	3.558833E+003	7.889329E+003	2.961526E+003	3.478174E+003	2.679092E+003	7.317032E+003	-8.626014E+002	-1.418090E+003	-5.339169E+003	4.687390E+003	9.567766E+002	0.000000E+000	0.000000E+000	
-1.511695E+003	3.255030E+000	-3.342309E+003	-6.764394E+003	-1.149213E+004	1.641252E+003	9.082950E+003	-9.946857E+003	-1.636710E+002	5.642788E+003	-1.084091E+002	-1.602836E+003	0.000000E+000	-4.361520E+003	-3.002443E+003	-7.018323E+003	9.961017E+003	2.098023E+003	0.000000E+000	-6.950703E+003	1.896984E+003	3.552378E+003	7.895986E+003	2.953416E+003	3.480491E+003	2.677842E+003	7.324700E+003	-8.818189E+002	-1.411138E+003	-5.319988E+003	4.699197E+003	9.682152E+002	0.000000E+000	0.000000E+000	
-1.523501E+003	-7.356000E+000	-3.350180E+003	-6.770444E+003	-1.150107E+004	1.627736E+003	9.074766E+003	-9.950811E+003	-1.691328E+002	5.632287E+003	-1.199212E+002	-1.607599E+003	0.000000E+000	-4.361667E+003	-3.009432E+003	-7.028640E+003	9.955482E+003	2.095908E+003	0.000000E+000	-6.950906E+003	1.891228E+003	3.546530E+003	7.897329E+003	2.963365E+003	3.479701E+003	2.672729E+003	7.324682E+003	-7.848301E+002	-1.410789E+003	-5.308880E+003	4.711058E+003	9.826329E+002	0.000000E+000	0.000000E+000	
-1.531004E+003	-1.462005E+001	-3.355568E+003	-6.774472E+003	-1.150616E+004	1.620030E+003	9.069103E+003	-9.954489E+003	-1.751096E+002	5.627101E+003	-1.240589E+002	-1.611387E+003	0.000000E+000	-4.366577E+003	-3.013827E+003	-7.035168E+003	9.954968E+003	2.075201E+003	0.000000E+000	-6.952082E+003	1.888267E+003	3.542264E+003	7.898046E+003	2.982215E+003	3.477126E+003	2.671662E+003	7.321537E+003	-7.345886E+002	-1.410697E+003	-5.305184E+003	4.737080E+003	1.000747E+003	0.000000E+000	0.000000E+000	
-1.527860E+003	-1.276266E+001	-3.353858E+003	-6.774729E+003	-1.150431E+004	1.623800E+003	9.070702E+003	-9.955445E+003	-1.751096E+002	5.628958E+003	-1.224958E+002	-1.613281E+003	0.000000E+000	-4.371413E+003	-3.013128E+003	-7.034212E+003	9.956144E+003	2.031543E+003	0.000000E+000	-6.952229E+003	1.890437E+003	3.544066E+003	7.895581E+003	3.004944E+003	3.476317E+003	2.671203E+003	7.320581E+003	-7.508270E+002	-1.412279E+003	-5.311621E+003	4.752859E+003	1.018640E+003	0.000000E+000	0.000000E+000	
-1.517745E+003	-2.243580E+000	-3.346796E+003	-6.770242E+003	-1.149701E+004	1.634981E+003	9.075576E+003	-9.953055E+003	-1.704937E+002	5.637583E+003	-1.166294E+002	-1.610155E+003	0.000000E+000	-4.373308E+003	-3.008898E+003	-7.025734E+003	9.956843E+003	1.969679E+003	0.000000E+000	-6.956312E+003	1.893122E+003	3.545206E+003	7.888814E+003	2.986371E+003	3.474735E+003	2.671718E+003	7.316076E+003	-7.511764E+002	-1.417336E+003	-5.325064E+003	4.763084E+003	1.028829E+003	0.000000E+000	0.000000E+000	
-1.508679E+003	8.275500E+000	-3.340268E+003	-6.768532E+003	-1.148899E+004	1.647321E+003	9.079640E+003	-9.953220E+003	-1.690960E+002	5.648599E+003	-1.100274E+002	-1.611111E+003	0.000000E+000	-4.379707E+003	-3.006949E+003	-7.018066E+003	9.954470E+003	1.898069E+003	0.000000E+000	-6.963834E+003	1.892975E+003	3.544801E+003	7.878056E+003	2.954206E+003	3.469494E+003	2.668812E+003	7.305170E+003	-6.443489E+002	-1.425924E+003	-5.353072E+003	4.766762E+003	1.025592E+003	0.000000E+000	0.000000E+000	
-1.503143E+003	1.469361E+001	-3.337564E+003	-6.768661E+003	-1.148511E+004	1.655082E+003	9.082104E+003	-9.954930E+003	-1.709718E+002	5.654227E+003	-1.068643E+002	-1.614256E+003	0.000000E+000	-4.387137E+003	-3.006747E+003	-7.015436E+003	9.956696E+003	1.835157E+003	0.000000E+000	-6.966500E+003	1.896193E+003	3.548001E+003	7.872943E+003	2.941738E+003	3.464143E+003	2.666991E+003	7.298734E+003	-5.291722E+002	-1.431827E+003	-5.380473E+003	4.759590E+003	1.012811E+003	0.000000E+000	0.000000E+000	
-1.505093E+003	1.313046E+001	-3.340102E+003	-6.774141E+003	-1.148709E+004	1.654714E+003	9.078941E+003	-9.958223E+003	-1.749073E+002	5.652057E+003	-1.096044E+002	-1.618486E+003	0.000000E+000	-4.393850E+003	-3.007869E+003	-7.018139E+003	9.955758E+003	1.782432E+003	0.000000E+000	-6.967125E+003	1.894703E+003	3.548498E+003	7.870608E+003	2.972026E+003	3.462984E+003	2.665391E+003	7.295166E+003	-4.533687E+002	-1.434622E+003	-5.394357E+003	4.789676E+003	1.000931E+003	0.000000E+000	0.000000E+000	
-1.511272E+003	7.907700E+000	-3.344369E+003	-6.777892E+003	-1.149213E+004	1.646622E+003	9.073369E+003	-9.959932E+003	-1.784750E+002	5.647238E+003	-1.171075E+002	-1.621980E+003	0.000000E+000	-4.396884E+003	-3.012282E+003	-7.024392E+003	9.951215E+003	1.737634E+003	0.000000E+000	-6.972440E+003	1.889738E+003	3.542484E+003	7.867187E+003	3.002627E+003	3.459582E+003	2.663332E+003	7.292978E+003	-4.225470E+002	-1.436443E+003	-5.402890E+003	4.900034E+003	9.894740E+002	0.000000E+000	0.000000E+000	
-1.516550E+003	2.390700E-001	-3.348083E+003	-6.777690E+003	-1.149548E+004	1.638384E+003	9.070151E+003	-9.960797E+003	-1.790267E+002	5.639900E+003	-1.208039E+002	-1.621134E+003	0.000000E+000	-4.391808E+003	-3.013404E+003	-7.028345E+003	9.945552E+003	1.697636E+003	0.000000E+000	-6.972789E+003	1.883614E+003	3.537041E+003	7.869614E+003	3.002682E+003	3.459545E+003	2.659543E+003	7.295295E+003	-4.081477E+002	-1.431698E+003	-5.402504E+003	4.981925E+003	9.873959E+002	0.000000E+000	0.000000E+000	
-1.527290E+003	-1.136502E+001	-3.353233E+003	-6.780246E+003	-1.150330E+004	1.624830E+003	9.064505E+003	-9.961495E+003	-1.812886E+002	5.630963E+003	-1.311207E+002	-1.620821E+003	0.000000E+000	-4.389160E+003	-3.016990E+003	-7.037540E+003	9.941137E+003	1.689434E+003	0.000000E+000	-6.969590E+003	1.877545E+003	3.530843E+003	7.874231E+003	3.003915E+003	3.459085E+003	2.658624E+003	7.296490E+003	-3.169517E+002	-1.428020E+003	-5.396950E+003	4.987570E+003	9.862373E+002	0.000000E+000	0.000000E+000	
-1.539629E+003	-2.578278E+001	-3.364028E+003	-6.786977E+003	-1.151416E+004	1.609272E+003	9.057131E+003	-9.966865E+003	-1.879090E+002	5.617925E+003	-1.424489E+002	-1.625878E+003	0.000000E+000	-4.391771E+003	-3.026001E+003	-7.049751E+003	9.937827E+003	1.650024E+003	0.000000E+000	-6.968780E+003	1.870851E+003	3.525014E+003	7.875481E+003	3.036226E+003	3.456529E+003	2.653346E+003	7.298568E+003	-2.007636E+002	-1.428094E+003	-5.390624E+003	5.034300E+003	9.873223E+002	0.000000E+000	0.000000E+000	
-1.553146E+003	-3.878451E+001	-3.376165E+003	-6.797772E+003	-1.152545E+004	1.593898E+003	9.044221E+003	-9.977035E+003	-1.991269E+002	5.603580E+003	-1.572897E+002	-1.637961E+003	0.000000E+000	-4.400856E+003	-3.036814E+003	-7.063783E+003	9.930361E+003	1.657877E+003	0.000000E+000	-6.973930E+003	1.862355E+003	3.516536E+003	7.869394E+003	3.113924E+003	3.449486E+003	2.644905E+003	7.294099E+003	-1.247945E+002	-1.433372E+003	-5.389907E+003	5.104218E+003	1.001372E+003	0.000000E+000	0.000000E+000	
-1.565633E+003	-5.051733E+001	-3.389020E+003	-6.811344E+003	-1.154013E+004	1.582919E+003	9.030428E+003	-9.990460E+003	-2.130849E+002	5.589990E+003	-1.708615E+002	-1.651532E+003	0.000000E+000	-4.417094E+003	-3.049044E+003	-7.077226E+003	9.914086E+003	1.644250E+003	0.000000E+000	-6.990572E+003	1.847239E+003	3.503350E+003	7.854185E+003	3.212237E+003	3.437293E+003	2.631646E+003	7.282164E+003	8.635944E+001	-1.448305E+003	-5.397502E+003	5.145154E+003	1.001188E+003	0.000000E+000	0.000000E+000	
-1.562966E+003	-4.797951E+001	-3.389847E+003	-6.814635E+003	-1.153847E+004	1.585512E+003	9.028074E+003	-9.995903E+003	-2.167078E+002	5.593208E+003	-1.739510E+002	-1.657215E+003	0.000000E+000	-4.425738E+003	-3.052814E+003	-7.078311E+003	9.905535E+003	1.632388E+003	0.000000E+000	-7.002655E+003	1.842108E+003	3.496803E+003	7.839878E+003	3.242010E+003	3.428135E+003	2.621991E+003	7.269494E+003	1.805346E+002	-1.461288E+003	-5.408849E+003	5.164482E+003	9.974736E+002	0.000000E+000	0.000000E+000	
-1.555445E+003	-3.869256E+001	-3.383944E+003	-6.813771E+003	-1.153081E+004	1.598312E+003	9.032598E+003	-9.995701E+003	-2.157331E+002	5.601171E+003	-1.687834E+002	-1.658962E+003	0.000000E+000	-4.432597E+003	-3.049614E+003	-7.071415E+003	9.903751E+003	1.618007E+003	0.000000E+000	-7.009514E+003	1.843469E+003	3.499507E+003	7.832742E+003	3.198371E+003	3.421312E+003	2.619840E+003	7.258956E+003	2.181054E+002	-1.467265E+003	-5.419331E+003	5.176877E+003	9.885728E+002	0.000000E+000	0.000000E+000	
-1.560796E+003	-4.249929E+001	-3.391999E+003	-6.825357E+003	-1.153592E+004	1.596969E+003	9.024176E+003	-1.001087E+004	-2.286613E+002	5.596206E+003	-1.783278E+002	-1.673931E+003	0.000000E+000	-4.451778E+003	-3.060023E+003	-7.078642E+003	9.896008E+003	1.589999E+003	0.000000E+000	-7.023803E+003	1.836021E+003	3.490165E+003	7.816137E+003	3.223933E+003	3.406251E+003	2.606893E+003	7.237532E+003	5.159682E+002	-1.484845E+003	-5.444801E+003	5.204903E+003	9.516274E+002	0.000000E+000	0.000000E+000	
-1.620141E+003	-1.015680E+002	-3.453256E+003	-6.889703E+003	-1.159924E+004	1.535731E+003	8.961595E+003	-1.007498E+004	-2.937251E+002	5.537634E+003	-2.410010E+002	-1.738646E+003	0.000000E+000	-4.518478E+003	-3.122567E+003	-7.140929E+003	9.836554E+003	1.524789E+003	0.000000E+000	-7.088628E+003	1.775610E+003	3.427823E+003	7.750190E+003	3.155982E+003	3.343670E+003	2.542969E+003	7.169562E+003	2.372328E+003	-1.549302E+003	-5.520329E+003	5.166468E+003	8.518064E+002	0.000000E+000	0.000000E+000	
-1.640131E+003	-1.208959E+002	-3.470818E+003	-6.907100E+003	-1.161608E+004	1.517304E+003	8.941586E+003	-1.009210E+004	-3.117473E+002	5.517534E+003	-2.618736E+002	-1.757183E+003	0.000000E+000	-4.535912E+003	-3.140074E+003	-7.159466E+003	9.814669E+003	1.498086E+003	0.000000E+000	-7.108029E+003	1.753505E+003	3.409157E+003	7.730476E+003	3.171356E+003	3.327376E+003	2.524782E+003	7.151393E+003	2.899478E+003	-1.564621E+003	-5.539252E+003	5.173254E+003	7.954779E+002	0.000000E+000	0.000000E+000	
-1.587774E+003	-6.953259E+001	-3.416237E+003	-6.849485E+003	-1.156179E+004	1.567619E+003	8.995763E+003	-1.003336E+004	-2.532119E+002	5.571379E+003	-2.111540E+002	-1.695576E+003	0.000000E+000	-4.474416E+003	-3.082514E+003	-7.106135E+003	9.869361E+003	1.550939E+003	0.000000E+000	-7.048133E+003	1.806303E+003	3.461605E+003	7.790703E+003	3.149416E+003	3.384165E+003	2.580099E+003	7.213257E+003	1.386404E+003	-1.504872E+003	-5.479043E+003	5.218733E+003	8.276604E+002	0.000000E+000	0.000000E+000	
-1.571628E+003	-5.529873E+001	-3.396155E+003	-6.825173E+003	-1.154178E+004	1.580437E+003	9.017757E+003	-1.000835E+004	-2.285142E+002	5.588280E+003	-1.934996E+002	-1.668911E+003	0.000000E+000	-4.445286E+003	-3.060409E+003	-7.088702E+003	9.892423E+003	1.573209E+003	0.000000E+000	-7.019904E+003	1.827433E+003	3.483029E+003	7.821525E+003	3.079939E+003	3.411364E+003	2.603822E+003	7.246065E+003	8.405517E+002	-1.475283E+003	-5.450079E+003	5.231606E+003	8.318349E+002	0.000000E+000	0.000000E+000	
-1.564106E+003	-4.847604E+001	-3.385323E+003	-6.810314E+003	-1.153463E+004	1.585273E+003	9.030024E+003	-9.992630E+003	-2.141700E+002	5.595562E+003	-1.858310E+002	-1.655008E+003	0.000000E+000	-4.426878E+003	-3.048161E+003	-7.080536E+003	9.908790E+003	1.595020E+003	0.000000E+000	-6.995832E+003	1.841740E+003	3.499562E+003	7.847179E+003	2.948818E+003	3.429257E+003	2.622046E+003	7.269254E+003	5.343950E+002	-1.452332E+003	-5.426724E+003	5.257738E+003	8.563120E+002	0.000000E+000	0.000000E+000	
-1.545054E+003	-3.006765E+001	-3.365241E+003	-6.789368E+003	-1.151494E+004	1.602615E+003	9.050621E+003	-9.969937E+003	-1.931502E+002	5.613070E+003	-1.699788E+002	-1.633492E+003	0.000000E+000	-4.405619E+003	-3.027399E+003	-7.061411E+003	9.931925E+003	1.624113E+003	0.000000E+000	-6.969093E+003	1.865169E+003	3.521814E+003	7.873422E+003	3.013790E+003	3.455205E+003	2.645420E+003	7.301437E+003	1.888837E+002	-1.425243E+003	-5.404067E+003	4.922635E+003	8.943425E+002	0.000000E+000	0.000000E+000	
-1.444810E+003	7.067277E+001	-3.263968E+003	-6.688646E+003	-1.141388E+004	1.704606E+003	9.149871E+003	-9.869766E+003	-9.200518E+001	5.714969E+003	-7.264051E+001	-1.531519E+003	0.000000E+000	-4.306736E+003	-2.925389E+003	-6.962050E+003	1.003147E+004	1.718362E+003	0.000000E+000	-6.870155E+003	1.963850E+003	3.620421E+003	7.970980E+003	3.110393E+003	3.555228E+003	2.745627E+003	7.400614E+003	-8.205618E+001	-1.325367E+003	-5.293047E+003	2.377423E+003	1.008066E+003	0.000000E+000	0.000000E+000	
-1.421510E+003	9.353154E+001	-3.243095E+003	-6.670200E+003	-1.139119E+004	1.729101E+003	9.170211E+003	-9.852994E+003	-7.365195E+001	5.737790E+003	-5.415855E+001	-1.516274E+003	0.000000E+000	-4.292042E+003	-2.905841E+003	-6.939191E+003	1.004576E+004	1.729947E+003	0.000000E+000	-6.861254E+003	1.977385E+003	3.636696E+003	7.979495E+003	3.064822E+003	3.568616E+003	2.760100E+003	7.402840E+003	-2.198525E+002	-1.313046E+003	-5.265572E+003	2.087118E+003	1.036700E+003	0.000000E+000	0.000000E+000	
-1.442125E+003	7.482891E+001	-3.267958E+003	-6.699735E+003	-1.141410E+004	1.712183E+003	9.143564E+003	-9.882805E+003	-1.024691E+002	5.717267E+003	-7.878276E+001	-1.547096E+003	0.000000E+000	-4.326707E+003	-2.933352E+003	-6.962050E+003	1.001615E+004	1.705489E+003	0.000000E+000	-6.894374E+003	1.950535E+003	3.609976E+003	7.941850E+003	2.984605E+003	3.533896E+003	2.728506E+003	7.362841E+003	-2.622414E+001	-1.349311E+003	-5.293433E+003	2.730897E+003	1.007974E+003	0.000000E+000	0.000000E+000	
-1.469214E+003	4.911969E+001	-3.298136E+003	-6.733113E+003	-1.144338E+004	1.688515E+003	9.110608E+003	-9.920743E+003	-1.392307E+002	5.690473E+003	-1.126939E+002	-1.585770E+003	0.000000E+000	-4.369722E+003	-2.967852E+003	-6.991897E+003	9.985862E+003	1.677554E+003	0.000000E+000	-6.929977E+003	1.921718E+003	3.580625E+003	7.900418E+003	2.943798E+003	3.496785E+003	2.693639E+003	7.317418E+003	3.288684E+002	-1.388721E+003	-5.339463E+003	3.367798E+003	9.371728E+002	0.000000E+000	0.000000E+000	
-1.446079E+003	7.190491E+001	-3.276399E+003	-6.715440E+003	-1.142135E+004	1.710840E+003	9.129348E+003	-9.902133E+003	-1.211717E+002	5.713976E+003	-9.575673E+001	-1.568336E+003	0.000000E+000	-4.354715E+003	-2.948377E+003	-6.970307E+003	1.000550E+004	1.714040E+003	0.000000E+000	-6.911882E+003	1.942738E+003	3.600652E+003	7.914302E+003	2.969286E+003	3.515193E+003	2.712691E+003	7.331358E+003	4.116785E+002	-1.371968E+003	-6.064342E+003	3.472602E+003	9.523813E+002	0.000000E+000	0.000000E+000	
-1.341642E+003	1.751280E+002	-3.173507E+003	-6.610984E+003	-1.131798E+004	1.812758E+003	9.233307E+003	-9.798413E+003	-1.553955E+001	5.818044E+003	3.181470E+000	-1.463164E+003	0.000000E+000	-4.249911E+003	-2.843388E+003	-6.866532E+003	1.010749E+004	1.826973E+003	0.000000E+000	-6.810479E+003	2.044821E+003	3.704187E+003	8.017709E+003	3.039959E+003	3.618674E+003	2.815013E+003	7.434655E+003	-1.661757E+003	-1.269535E+003	-6.773828E+003	3.476593E+003	1.068294E+003	0.000000E+000	0.000000E+000	
-1.125542E+003	3.908427E+002	-2.955825E+003	-6.390323E+003	-1.109916E+004	2.029723E+003	9.453177E+003	-9.577660E+003	2.057473E+002	6.036793E+003	2.163032E+002	-1.240056E+003	0.000000E+000	-4.028955E+003	-2.623242E+003	-6.648739E+003	1.032622E+004	1.975546E+003	0.000000E+000	-6.585128E+003	2.260756E+003	3.920656E+003	8.240191E+003	3.230296E+003	3.840090E+003	3.034718E+003	7.656585E+003	-8.179725E+003	-1.045766E+003	-6.235700E+003	3.638112E+003	1.280238E+003	0.000000E+000	0.000000E+000	
-1.182128E+003	3.322705E+002	-3.009983E+003	-6.440454E+003	-1.115431E+004	1.972603E+003	9.399056E+003	-9.624756E+003	1.568299E+002	5.979196E+003	1.571242E+002	-1.287723E+003	0.000000E+000	-4.074433E+003	-2.675083E+003	-6.703983E+003	1.027453E+004	1.901305E+003	0.000000E+000	-6.629595E+003	2.207756E+003	3.867987E+003	8.196534E+003	4.663723E+003	3.793305E+003	2.984201E+003	7.611658E+003	-8.420689E+003	-1.090490E+003	-6.042733E+003	3.564276E+003	1.274298E+003	0.000000E+000	0.000000E+000	
-1.071144E+003	4.422611E+002	-2.894053E+003	-6.320845E+003	-1.104003E+004	2.080976E+003	9.515281E+003	-9.504247E+003	2.779465E+002	6.092240E+003	2.678504E+002	-1.165926E+003	0.000000E+000	-3.949694E+003	-2.557681E+003	-6.589247E+003	1.038934E+004	2.014864E+003	0.000000E+000	-6.511200E+003	2.321002E+003	3.982318E+003	8.320519E+003	1.118811E+003	3.915709E+003	3.107285E+003	7.739340E+003	-8.100317E+003	-9.632130E+002	-6.028573E+003	3.683168E+003	1.427377E+003	0.000000E+000	0.000000E+000	
-1.038961E+003	4.737080E+002	-2.859590E+003	-6.283054E+003	-1.100524E+004	2.112000E+003	9.551068E+003	-9.465297E+003	3.163264E+002	6.123098E+003	3.032695E+002	-1.126958E+003	0.000000E+000	-3.910210E+003	-2.521839E+003	-6.555870E+003	1.042651E+004	2.061777E+003	0.000000E+000	-6.471828E+003	2.354748E+003	4.016652E+003	8.364104E+003	4.064190E+000	3.955156E+003	3.144984E+003	7.781545E+003	-7.836531E+003	-9.224792E+002	-6.176650E+003	3.716435E+003	1.469582E+003	0.000000E+000	0.000000E+000	
-1.111455E+003	4.003503E+002	-2.932065E+003	-6.355603E+003	-1.107937E+004	2.036472E+003	9.477728E+003	-9.537109E+003	2.422883E+002	6.049685E+003	2.294520E+002	-1.198771E+003	0.000000E+000	-3.982888E+003	-2.595951E+003	-6.630386E+003	1.035348E+004	1.999710E+003	0.000000E+000	-6.544780E+003	2.280691E+003	3.942871E+003	8.290783E+003	2.142803E+002	3.880584E+003	3.070303E+003	7.709309E+003	-5.930003E+003	-9.963518E+002	-6.322170E+003	3.639639E+003	1.399369E+003	0.000000E+000	0.000000E+000	
-1.212655E+003	3.006214E+002	-3.033633E+003	-6.461915E+003	-1.118053E+004	1.938104E+003	9.375792E+003	-9.641730E+003	1.368952E+002	5.948632E+003	1.265048E+002	-1.305175E+003	0.000000E+000	-4.090396E+003	-2.697427E+003	-6.732377E+003	1.024851E+004	1.886869E+003	0.000000E+000	-6.650045E+003	2.177468E+003	3.838600E+003	8.183899E+003	5.567205E+002	3.774768E+003	2.964358E+003	7.599631E+003	-3.305603E+003	-1.103382E+003	-6.459561E+003	3.525381E+003	1.291787E+003	0.000000E+000	0.000000E+000	
-1.238401E+003	2.760523E+002	-3.062468E+003	-6.494245E+003	-1.120674E+004	1.911972E+003	9.345596E+003	-9.675072E+003	1.047862E+002	5.922996E+003	9.629004E+001	-1.339215E+003	0.000000E+000	-4.126587E+003	-2.728947E+003	-6.760642E+003	1.021614E+004	1.828610E+003	0.000000E+000	-6.687652E+003	2.146867E+003	3.809433E+003	8.145372E+003	8.245708E+002	3.740066E+003	2.930336E+003	7.560313E+003	-2.619343E+003	-1.141486E+003	-6.519715E+003	3.478487E+003	1.262621E+003	0.000000E+000	0.000000E+000	
-1.221887E+003	2.944055E+002	-3.048143E+003	-6.485142E+003	-1.119296E+004	1.931079E+003	9.356649E+003	-9.667862E+003	1.122893E+002	5.939823E+003	1.069379E+002	-1.332484E+003	0.000000E+000	-4.123682E+003	-2.717858E+003	-6.745839E+003	1.022541E+004	1.791370E+003	0.000000E+000	-6.682356E+003	2.158398E+003	3.821001E+003	8.145593E+003	7.722145E+002	3.745528E+003	2.938446E+003	7.556102E+003	-2.723393E+003	-1.139224E+003	-6.534832E+003	3.468409E+003	1.252083E+003	0.000000E+000	0.000000E+000	
-1.207340E+003	3.078670E+002	-3.036980E+003	-6.477418E+003	-1.117845E+004	1.948568E+003	9.366653E+003	-9.660525E+003	1.220177E+002	5.953229E+003	1.174753E+002	-1.325110E+003	0.000000E+000	-4.118128E+003	-2.707799E+003	-6.733793E+003	1.023415E+004	1.768070E+003	0.000000E+000	-6.677391E+003	2.167887E+003	3.829276E+003	8.148591E+003	6.456729E+002	3.751523E+003	2.947476E+003	7.556047E+003	-2.777534E+003	-1.133964E+003	-6.541820E+003	3.459398E+003	1.252580E+003	0.000000E+000	0.000000E+000	
-1.189520E+003	3.262754E+002	-3.019988E+003	-6.460003E+003	-1.116168E+004	1.966516E+003	9.383111E+003	-9.642576E+003	1.387709E+002	5.972134E+003	1.319115E+002	-1.309405E+003	0.000000E+000	-4.100069E+003	-2.690053E+003	-6.714907E+003	1.025112E+004	1.767389E+003	0.000000E+000	-6.659552E+003	2.184953E+003	3.841322E+003	8.165105E+003	5.800022E+002	3.769674E+003	2.964192E+003	7.572800E+003	-2.777883E+003	-1.117285E+003	-6.528965E+003	3.462690E+003	8.942874E+002	0.000000E+000	0.000000E+000	
-1.179774E+003	3.365922E+002	-3.008071E+003	-6.446468E+003	-1.115236E+004	1.974976E+003	9.396003E+003	-9.629096E+003	1.518462E+002	5.982764E+003	1.431110E+002	-1.295281E+003	0.000000E+000	-4.086810E+003	-2.678963E+003	-6.706006E+003	1.026454E+004	1.774709E+003	0.000000E+000	-6.643645E+003	2.196023E+003	3.853054E+003	8.176397E+003	5.401879E+002	3.784313E+003	2.976789E+003	7.587641E+003	-2.771263E+003	-1.101175E+003	-6.513462E+003	3.472565E+003	6.009669E+002	0.000000E+000	0.000000E+000	
-1.189116E+003	3.239950E+002	-3.013459E+003	-6.448932E+003	-1.115870E+004	1.963077E+003	9.391332E+003	-9.630622E+003	1.496762E+002	5.972797E+003	1.355895E+002	-1.297194E+003	0.000000E+000	-4.084916E+003	-2.682384E+003	-6.712350E+003	1.026054E+004	1.768603E+003	0.000000E+000	-6.640022E+003	2.191334E+003	3.846379E+003	8.167515E+003	4.999138E+002	3.784883E+003	2.974601E+003	7.596339E+003	-2.775474E+003	-1.098049E+003	-6.507743E+003	3.471922E+003	7.406389E+002	0.000000E+000	0.000000E+000	
-1.199102E+003	3.132553E+002	-3.020190E+003	-6.451378E+003	-1.116663E+004	1.949579E+003	9.385888E+003	-9.631285E+003	1.477269E+002	5.961909E+003	1.256221E+002	-1.296164E+003	0.000000E+000	-4.080815E+003	-2.686945E+003	-6.721196E+003	1.025767E+004	1.766746E+003	0.000000E+000	-6.636216E+003	2.185192E+003	3.841818E+003	8.181197E+003	4.799790E+002	3.783743E+003	2.971015E+003	7.602996E+003	-2.776964E+003	-1.096375E+003	-6.498990E+003	3.476575E+003	8.315591E+002	0.000000E+000	0.000000E+000	
-1.207524E+003	3.049798E+002	-3.025744E+003	-6.453235E+003	-1.117321E+004	1.939465E+003	9.382118E+003	-9.631045E+003	1.443983E+002	5.954535E+003	1.183213E+002	-1.298095E+003	0.000000E+000	-4.080429E+003	-2.691983E+003	-6.730207E+003	1.025480E+004	1.770608E+003	0.000000E+000	-6.635572E+003	2.179546E+003	3.832991E+003	8.183274E+003	4.600626E+002	3.781830E+003	2.968790E+003	7.609451E+003	-2.780347E+003	-1.092899E+003	-6.494116E+003	3.477273E+003	9.323179E+002	0.000000E+000	0.000000E+000	
-1.208591E+003	3.021661E+002	-3.025799E+003	-6.455166E+003	-1.117630E+004	1.935584E+003	9.379562E+003	-9.631101E+003	1.416398E+002	5.950986E+003	1.135215E+002	-1.299768E+003	0.000000E+000	-4.081054E+003	-2.694337E+003	-6.732874E+003	1.025215E+004	1.784143E+003	0.000000E+000	-6.636142E+003	2.175151E+003	3.825672E+003	8.183808E+003	4.374062E+002	3.781186E+003	2.967392E+003	7.613534E+003	-2.793165E+003	-1.094407E+003	-6.494649E+003	3.469458E+003	1.010200E+003	0.000000E+000	0.000000E+000	
-1.232553E+003	2.766040E+002	-3.052464E+003	-6.482751E+003	-1.120023E+004	1.912027E+003	9.351297E+003	-9.659513E+003	1.153973E+002	5.925424E+003	8.639622E+001	-1.327629E+003	0.000000E+000	-4.111397E+003	-2.721058E+003	-6.759135E+003	1.022473E+004	1.750526E+003	0.000000E+000	-6.665621E+003	2.148890E+003	3.797039E+003	8.153152E+003	3.907691E+002	3.751689E+003	2.939090E+003	7.573278E+003	-2.837651E+003	-1.123684E+003	-6.529591E+003	3.432365E+003	1.874732E+003	0.000000E+000	0.000000E+000	
-1.254768E+003	2.567796E+002	-3.076518E+003	-6.509729E+003	-1.122252E+004	1.891724E+003	9.326709E+003	-9.688992E+003	8.784903E+001	5.904092E+003	6.109158E+001	-1.357495E+003	0.000000E+000	-4.141925E+003	-2.747319E+003	-6.783152E+003	1.019834E+004	1.717221E+003	0.000000E+000	-6.695248E+003	2.123880E+003	3.768626E+003	8.123378E+003	3.444263E+002	3.721805E+003	2.911468E+003	7.539091E+003	-2.884490E+003	-1.155830E+003	-6.568283E+003	3.389516E+003	2.720433E+003	0.000000E+000	0.000000E+000	
-1.259862E+003	2.543705E+002	-3.085897E+003	-6.522970E+003	-1.123028E+004	1.888267E+003	9.315492E+003	-9.702417E+003	7.492086E+001	5.900322E+003	5.250345E+001	-1.374156E+003	0.000000E+000	-4.160075E+003	-2.757893E+003	-6.790324E+003	1.018560E+004	1.690630E+003	0.000000E+000	-6.712865E+003	2.113452E+003	3.756930E+003	8.102432E+003	3.109013E+002	3.707093E+003	2.896756E+003	7.523736E+003	-2.919578E+003	-1.173723E+003	-6.595923E+003	3.358143E+003	3.154455E+003	0.000000E+000	0.000000E+000	
-1.257913E+003	2.567796E+002	-3.086247E+003	-6.525839E+003	-1.122914E+004	1.894299E+003	9.313744E+003	-9.707144E+003	7.275084E+001	5.902951E+003	5.357007E+001	-1.378165E+003	0.000000E+000	-4.167892E+003	-2.759769E+003	-6.787749E+003	1.018299E+004	1.679816E+003	0.000000E+000	-6.717720E+003	2.112459E+003	3.754411E+003	8.091692E+003	2.932653E+002	3.701208E+003	2.894182E+003	7.519396E+003	-2.940966E+003	-1.179921E+003	-6.611775E+003	3.339771E+003	3.287378E+003	0.000000E+000	0.000000E+000	
-1.254787E+003	2.590048E+002	-3.085713E+003	-6.526280E+003	-1.122732E+004	1.897112E+003	9.313744E+003	-9.708136E+003	7.219915E+001	5.903687E+003	5.307354E+001	-1.378735E+003	0.000000E+000	-4.168185E+003	-2.759254E+003	-6.787823E+003	1.018280E+004	1.676028E+003	0.000000E+000	-6.719357E+003	2.113103E+003	3.753840E+003	8.093715E+003	2.866449E+002	3.701539E+003	2.892545E+003	7.510201E+003	-2.953986E+003	-1.181447E+003	-6.615729E+003	3.332011E+003	3.325960E+003	0.000000E+000	0.000000E+000	
-1.257729E+003	2.553268E+002	-3.086725E+003	-6.524349E+003	-1.122858E+004	1.894078E+003	9.312586E+003	-9.707916E+003	7.150032E+001	5.900358E+003	5.013114E+001	-1.379140E+003	0.000000E+000	-4.167928E+003	-2.761663E+003	-6.790986E+003	1.018149E+004	1.673582E+003	0.000000E+000	-6.718106E+003	2.110492E+003	3.750291E+003	8.098147E+003	2.887230E+002	3.702679E+003	2.892802E+003	7.510164E+003	-2.957737E+003	-1.179994E+003	-6.611536E+003	3.333574E+003	3.346925E+003	0.000000E+000	0.000000E+000	
-1.262455E+003	2.483570E+002	-3.089741E+003	-6.526501E+003	-1.123296E+004	1.885600E+003	9.309662E+003	-9.706004E+003	7.210719E+001	5.894510E+003	4.362108E+001	-1.378202E+003	0.000000E+000	-4.164342E+003	-2.762895E+003	-6.794884E+003	1.018002E+004	1.675182E+003	0.000000E+000	-6.714888E+003	2.106851E+003	3.745767E+003	8.102469E+003	2.975134E+002	3.703728E+003	2.892600E+003	7.514816E+003	-2.958749E+003	-1.177181E+003	-6.605982E+003	3.339642E+003	3.362814E+003	0.000000E+000	0.000000E+000	
-1.271797E+003	2.399711E+002	-3.093161E+003	-6.526299E+003	-1.123991E+004	1.873959E+003	9.305763E+003	-9.705157E+003	7.236465E+001	5.887430E+003	3.604440E+001	-1.377816E+003	0.000000E+000	-4.159671E+003	-2.765286E+003	-6.803344E+003	1.017839E+004	1.678014E+003	0.000000E+000	-6.710658E+003	2.104074E+003	3.740066E+003	8.110965E+003	3.119864E+002	3.704206E+003	2.891717E+003	7.516618E+003	-2.954666E+003	-1.171940E+003	-6.594691E+003	3.348635E+003	3.374326E+003	0.000000E+000	0.000000E+000	
-1.276781E+003	2.330933E+002	-3.095809E+003	-6.527126E+003	-1.124276E+004	1.865040E+003	9.303520E+003	-9.703907E+003	7.153710E+001	5.882354E+003	3.054579E+001	-1.376639E+003	0.000000E+000	-4.156103E+003	-2.767861E+003	-6.808364E+003	1.017763E+004	1.683329E+003	0.000000E+000	-6.706870E+003	2.101039E+003	3.736260E+003	8.119406E+003	3.214204E+002	3.705236E+003	2.892765E+003	7.511561E+003	-2.953820E+003	-1.167618E+003	-6.585937E+003	3.355789E+003	3.379586E+003	0.000000E+000	0.000000E+000	
-1.276947E+003	2.325783E+002	-3.097042E+003	-6.525949E+003	-1.124396E+004	1.863422E+003	9.303557E+003	-9.702013E+003	7.065438E+001	5.880902E+003	2.984697E+001	-1.376271E+003	0.000000E+000	-4.153804E+003	-2.768964E+003	-6.807849E+003	1.017749E+004	1.684561E+003	0.000000E+000	-6.705877E+003	2.099329E+003	3.735267E+003	8.122827E+003	3.259628E+002	3.706744E+003	2.893869E+003	7.511690E+003	-2.957553E+003	-1.164804E+003	-6.581836E+003	3.357187E+003	3.367099E+003	0.000000E+000	0.000000E+000	
-1.275365E+003	2.332404E+002	-3.096159E+003	-6.525949E+003	-1.124170E+004	1.866309E+003	9.303777E+003	-9.702270E+003	7.026819E+001	5.881508E+003	3.058257E+001	-1.376841E+003	0.000000E+000	-4.154706E+003	-2.768872E+003	-6.805440E+003	1.017872E+004	1.687540E+003	0.000000E+000	-6.705730E+003	2.099108E+003	3.734549E+003	8.121539E+003	3.215492E+002	3.706780E+003	2.893758E+003	7.536958E+003	-2.966785E+003	-1.167802E+003	-6.584209E+003	3.351504E+003	3.354502E+003	0.000000E+000	0.000000E+000	
-1.268745E+003	2.407987E+002	-3.090458E+003	-6.524294E+003	-1.123539E+004	1.876185E+003	9.307823E+003	-9.702436E+003	7.330254E+001	5.888699E+003	3.527202E+001	-1.377043E+003	0.000000E+000	-4.155073E+003	-2.765617E+003	-6.798801E+003	1.018008E+004	1.687871E+003	0.000000E+000	-6.706024E+003	2.104478E+003	3.736683E+003	8.114643E+003	3.129794E+002	3.706486E+003	2.894788E+003	7.527910E+003	-2.980743E+003	-1.168997E+003	-6.591381E+003	3.338907E+003	3.338355E+003	0.000000E+000	0.000000E+000	
-1.257821E+003	2.537636E+002	-3.083764E+003	-6.521627E+003	-1.122756E+004	1.889554E+003	9.314002E+003	-9.701443E+003	7.552774E+001	5.897986E+003	4.104648E+001	-1.376657E+003	0.000000E+000	-4.159395E+003	-2.760505E+003	-6.791722E+003	1.018240E+004	1.688073E+003	0.000000E+000	-6.708470E+003	2.110105E+003	3.738981E+003	8.110855E+003	2.982858E+002	3.706376E+003	2.897087E+003	7.516067E+003	-2.999759E+003	-1.169770E+003	-6.603316E+003	3.323055E+003	3.318935E+003	0.000000E+000	0.000000E+000	
-1.248865E+003	2.631793E+002	-3.079829E+003	-6.521315E+003	-1.121948E+004	1.900735E+003	9.317054E+003	-9.702196E+003	7.615300E+001	5.907641E+003	4.648992E+001	-1.377889E+003	0.000000E+000	-4.162080E+003	-2.757102E+003	-6.784531E+003	1.018427E+004	1.691089E+003	0.000000E+000	-6.708341E+003	2.114243E+003	3.741832E+003	8.107673E+003	2.864610E+002	3.706339E+003	2.899772E+003	7.507129E+003	-3.013992E+003	-1.173245E+003	-6.612253E+003	3.309520E+003	3.301833E+003	0.000000E+000	0.000000E+000	
-1.244451E+003	2.672067E+002	-3.077162E+003	-6.519752E+003	-1.121762E+004	1.903604E+003	9.317422E+003	-9.701424E+003	7.782648E+001	5.910822E+003	4.952427E+001	-1.377337E+003	0.000000E+000	-4.161584E+003	-2.755889E+003	-6.781607E+003	1.018604E+004	1.690482E+003	0.000000E+000	-6.708341E+003	2.115733E+003	3.744793E+003	8.108483E+003	2.824704E+002	3.708068E+003	2.900857E+003	7.502863E+003	-3.023187E+003	-1.173245E+003	-6.616888E+003	3.302237E+003	3.290394E+003	0.000000E+000	0.000000E+000	
-1.246787E+003	2.660481E+002	-3.077732E+003	-6.518869E+003	-1.121768E+004	1.901287E+003	9.315914E+003	-9.700596E+003	7.775292E+001	5.908652E+003	4.546008E+001	-1.377668E+003	0.000000E+000	-4.159984E+003	-2.757746E+003	-6.781883E+003	1.018431E+004	1.693296E+003	0.000000E+000	-6.706466E+003	2.115457E+003	3.742144E+003	8.111885E+003	2.853393E+002	3.709484E+003	2.901151E+003	7.511911E+003	-3.028539E+003	-1.170615E+003	-6.613191E+003	3.301336E+003	3.286477E+003	0.000000E+000	0.000000E+000	
-1.251017E+003	2.598323E+002	-3.080766E+003	-6.518961E+003	-1.122371E+004	1.895255E+003	9.313120E+003	-9.698702E+003	7.791843E+001	5.905103E+003	4.071546E+001	-1.375811E+003	0.000000E+000	-4.157188E+003	-2.759254E+003	-6.786609E+003	1.018315E+004	1.699585E+003	0.000000E+000	-6.705307E+003	2.113912E+003	3.738871E+003	8.115157E+003	2.930079E+002	3.709980E+003	2.900434E+003	7.516600E+003	-3.026608E+003	-1.167949E+003	-6.606056E+003	3.307479E+003	3.288151E+003	0.000000E+000	0.000000E+000	
-1.259550E+003	2.488719E+002	-3.084205E+003	-6.520138E+003	-1.122897E+004	1.883430E+003	9.309423E+003	-9.697636E+003	7.563808E+001	5.896331E+003	3.205377E+001	-1.376124E+003	0.000000E+000	-4.155441E+003	-2.761442E+003	-6.793009E+003	1.018072E+004	1.708633E+003	0.000000E+000	-6.701518E+003	2.107623E+003	3.734402E+003	8.121484E+003	3.063406E+002	3.708197E+003	2.898650E+003	7.537454E+003	-3.020613E+003	-1.165650E+003	-6.595187E+003	3.315349E+003	3.295304E+003	0.000000E+000	0.000000E+000	
-1.267788E+003	2.398792E+002	-3.088546E+003	-6.521811E+003	-1.123441E+004	1.872102E+003	9.306186E+003	-9.697894E+003	7.554612E+001	5.887761E+003	2.497362E+001	-1.375811E+003	0.000000E+000	-4.149501E+003	-2.766169E+003	-6.800401E+003	1.017795E+004	1.712863E+003	0.000000E+000	-6.698190E+003	2.102823E+003	3.728904E+003	8.127737E+003	3.166758E+002	3.707295E+003	2.897381E+003	7.566695E+003	-3.017597E+003	-1.163609E+003	-6.585588E+003	3.323036E+003	3.299865E+003	0.000000E+000	0.000000E+000	
-1.270050E+003	2.377275E+002	-3.089483E+003	-6.521554E+003	-1.123578E+004	1.868351E+003	9.304623E+003	-9.697875E+003	7.580358E+001	5.884727E+003	2.109333E+001	-1.374561E+003	0.000000E+000	-4.148453E+003	-2.767622E+003	-6.803270E+003	1.017776E+004	1.716026E+003	0.000000E+000	-6.697712E+003	2.102400E+003	3.727212E+003	8.134062E+003	3.207768E+002	3.708141E+003	2.897161E+003	7.571366E+003	-3.019399E+003	-1.162175E+003	-6.581708E+003	3.324176E+003	3.298265E+003	0.000000E+000	0.000000E+000	
-1.268671E+003	2.393459E+002	-3.087810E+003	-6.520230E+003	-1.123383E+004	1.871293E+003	9.305065E+003	-9.695907E+003	7.620816E+001	5.887614E+003	1.986120E+001	-1.375719E+003	0.000000E+000	-4.147405E+003	-2.766261E+003	-6.801100E+003	1.017809E+004	1.717939E+003	0.000000E+000	-6.698300E+003	2.103209E+003	3.727892E+003	8.135295E+003	3.201883E+002	3.708564E+003	2.897179E+003	7.566621E+003	-3.025854E+003	-1.161843E+003	-6.582885E+003	3.321013E+003	3.290725E+003	0.000000E+000	0.000000E+000	
-1.260377E+003	2.455985E+002	-3.083341E+003	-6.517784E+003	-1.122930E+004	1.878759E+003	9.305874E+003	-9.696551E+003	7.714605E+001	5.893425E+003	2.416446E+001	-1.375848E+003	0.000000E+000	-4.148987E+003	-2.763042E+003	-6.795473E+003	1.017850E+004	1.714702E+003	0.000000E+000	-6.698153E+003	2.106041E+003	3.731405E+003	8.128785E+003	3.110669E+002	3.708969E+003	2.899901E+003	7.562391E+003	-3.036355E+003	-1.161954E+003	-6.588806E+003	3.311432E+003	3.277871E+003	0.000000E+000	0.000000E+000	
-1.251237E+003	2.557681E+002	-3.079810E+003	-6.516386E+003	-1.122049E+004	1.891375E+003	9.310159E+003	-9.697158E+003	7.911379E+001	5.901848E+003	3.060096E+001	-1.376344E+003	0.000000E+000	-4.151598E+003	-2.759585E+003	-6.788080E+003	1.018137E+004	1.708210E+003	0.000000E+000	-6.700103E+003	2.111963E+003	3.734917E+003	8.123010E+003	2.988559E+002	3.710293E+003	2.902659E+003	7.556506E+003	-3.051214E+003	-1.165246E+003	-6.598755E+003	3.298449E+003	3.261320E+003	0.000000E+000	0.000000E+000	
-1.241638E+003	2.664343E+002	-3.073999E+003	-6.516000E+003	-1.121292E+004	1.903586E+003	9.314112E+003	-9.697911E+003	8.100795E+001	5.911080E+003	3.576855E+001	-1.376620E+003	0.000000E+000	-4.154154E+003	-2.756146E+003	-6.779639E+003	1.018602E+004	1.704845E+003	0.000000E+000	-6.702420E+003	2.117314E+003	3.740342E+003	8.114276E+003	2.836106E+002	3.709282E+003	2.904480E+003	7.554410E+003	-3.066018E+003	-1.167986E+003	-6.608005E+003	3.283755E+003	3.243408E+003	0.000000E+000	0.000000E+000	
-1.237298E+003	2.717858E+002	-3.071222E+003	-6.514400E+003	-1.120964E+004	1.909121E+003	9.317422E+003	-9.696882E+003	8.345382E+001	5.914666E+003	3.580533E+001	-1.378386E+003	0.000000E+000	-4.155552E+003	-2.751677E+003	-6.775207E+003	1.018631E+004	1.703080E+003	0.000000E+000	-6.702640E+003	2.121232E+003	3.742402E+003	8.109457E+003	2.777810E+002	3.708767E+003	2.906595E+003	7.552424E+003	-3.074808E+003	-1.168482E+003	-6.611996E+003	3.275866E+003	3.232484E+003	0.000000E+000	0.000000E+000	
-1.237481E+003	2.720249E+002	-3.071277E+003	-6.513076E+003	-1.120931E+004	1.907944E+003	9.316669E+003	-9.696091E+003	8.406070E+001	5.915438E+003	3.063774E+001	-1.377025E+003	0.000000E+000	-4.152996E+003	-2.752652E+003	-6.775649E+003	1.018637E+004	1.704569E+003	0.000000E+000	-6.701390E+003	2.122666E+003	3.741795E+003	8.110983E+003	2.777074E+002	3.711323E+003	2.906944E+003	7.545344E+003	-3.077254E+003	-1.167839E+003	-6.610672E+003	3.278698E+003	3.229560E+003	0.000000E+000	0.000000E+000	
-1.242355E+003	2.670044E+002	-3.073944E+003	-6.512653E+003	-1.121275E+004	1.902611E+003	9.313965E+003	-9.695760E+003	8.332510E+001	5.911171E+003	2.427480E+001	-1.376161E+003	0.000000E+000	-4.149979E+003	-2.754381E+003	-6.780743E+003	1.018530E+004	1.707346E+003	0.000000E+000	-6.699753E+003	2.120533E+003	3.741446E+003	8.116022E+003	2.873805E+002	3.712261E+003	2.907275E+003	7.545620E+003	-3.075636E+003	-1.165908E+003	-6.602470E+003	3.283902E+003	3.233348E+003	0.000000E+000	0.000000E+000	
-1.251072E+003	2.577543E+002	-3.076904E+003	-6.513297E+003	-1.121755E+004	1.893949E+003	9.311188E+003	-9.693756E+003	8.279178E+001	5.903779E+003	1.541082E+001	-1.376492E+003	0.000000E+000	-4.147607E+003	-2.757783E+003	-6.787657E+003	1.018435E+004	1.713764E+003	0.000000E+000	-6.694328E+003	2.115806E+003	3.737253E+003	8.120748E+003	2.992421E+002	3.713070E+003	2.906944E+003	7.550383E+003	-3.069015E+003	-1.161347E+003	-6.592484E+003	3.291534E+003	3.241716E+003	0.000000E+000	0.000000E+000	
-1.256828E+003	2.483386E+002	-3.080068E+003	-6.513389E+003	-1.122307E+004	1.883191E+003	9.306665E+003	-9.692027E+003	8.174355E+001	5.897067E+003	6.877860E+000	-1.375554E+003	0.000000E+000	-4.142716E+003	-2.760983E+003	-6.795657E+003	1.018142E+004	1.717700E+003	0.000000E+000	-6.691441E+003	2.111466E+003	3.733611E+003	8.128215E+003	3.116737E+002	3.713732E+003	2.904369E+003	7.556286E+003	-3.062524E+003	-1.158386E+003	-6.582866E+003	3.302605E+003	3.250727E+003	0.000000E+000	0.000000E+000	
-1.260469E+003	2.430606E+002	-3.081061E+003	-6.511991E+003	-1.122621E+004	1.875008E+003	9.308742E+003	-9.690905E+003	8.258949E+001	5.893425E+003	-8.275500E-001	-1.375977E+003	0.000000E+000	-4.139442E+003	-2.763576E+003	-6.798158E+003	1.018021E+004	1.721175E+003	0.000000E+000	-6.691349E+003	2.108781E+003	3.731478E+003	8.132334E+003	3.182573E+002	3.713787E+003	2.904535E+003	7.559780E+003	-3.061016E+003	-1.158313E+003	-6.576945E+003	3.308747E+003	3.254368E+003	0.000000E+000	0.000000E+000	
-1.259237E+003	2.433181E+002	-3.081189E+003	-6.511568E+003	-1.122665E+004	1.878097E+003	9.313505E+003	-9.690518E+003	8.354578E+001	5.892285E+003	-8.790420E+000	-1.375682E+003	0.000000E+000	-4.138964E+003	-2.763079E+003	-6.797974E+003	1.017922E+004	1.722867E+003	0.000000E+000	-6.692416E+003	2.111411E+003	3.731478E+003	8.133548E+003	3.183125E+002	3.714504E+003	2.905326E+003	7.556819E+003	-3.062946E+003	-1.156805E+003	-6.576540E+003	3.307809E+003	3.250506E+003	0.000000E+000	0.000000E+000	
-1.254345E+003	2.490006E+002	-3.077438E+003	-6.511090E+003	-1.122316E+004	1.883485E+003	9.317073E+003	-9.691475E+003	8.523765E+001	5.898299E+003	-1.061103E+001	-1.376289E+003	0.000000E+000	-4.140490E+003	-2.760597E+003	-6.793542E+003	1.018094E+004	1.722757E+003	0.000000E+000	-6.692544E+003	2.115034E+003	3.733005E+003	8.131948E+003	3.109013E+002	3.713695E+003	2.906613E+003	7.553711E+003	-3.071627E+003	-1.158405E+003	-6.579538E+003	3.299350E+003	3.240428E+003	0.000000E+000	0.000000E+000	
-1.246106E+003	2.575152E+002	-3.072638E+003	-6.508975E+003	-1.121601E+004	1.893067E+003	9.323032E+003	-9.692726E+003	8.632266E+001	5.903797E+003	-5.572170E+000	-1.377908E+003	0.000000E+000	-4.142329E+003	-2.757617E+003	-6.786039E+003	1.018446E+004	1.710436E+003	0.000000E+000	-6.692452E+003	2.119705E+003	3.738154E+003	8.125640E+003	2.989846E+002	3.715074E+003	2.908323E+003	7.550309E+003	-3.084261E+003	-1.159894E+003	-6.588567E+003	3.288334E+003	3.228015E+003	0.000000E+000	0.000000E+000	
-1.237886E+003	2.673538E+002	-3.070045E+003	-6.507964E+003	-1.120950E+004	1.904377E+003	9.327298E+003	-9.691935E+003	8.702149E+001	5.913618E+003	8.073211E+000	-1.379103E+003	0.000000E+000	-4.146283E+003	-2.754050E+003	-6.779823E+003	1.018595E+004	1.710619E+003	0.000000E+000	-6.695505E+003	2.124266E+003	3.743045E+003	8.119480E+003	2.860749E+002	3.715314E+003	2.907937E+003	7.544700E+003	-3.098458E+003	-1.163002E+003	-6.598130E+003	3.275553E+003	3.211427E+003	0.000000E+000	0.000000E+000	
-1.233656E+003	2.728708E+002	-3.068703E+003	-6.508185E+003	-1.120593E+004	1.911972E+003	9.327537E+003	-9.693424E+003	8.751801E+001	5.918380E+003	3.334107E+001	-1.382303E+003	0.000000E+000	-4.149612E+003	-2.752413E+003	-6.775336E+003	1.018552E+004	1.719759E+003	0.000000E+000	-6.698374E+003	2.128036E+003	3.744333E+003	8.116831E+003	2.765856E+002	3.713382E+003	2.909335E+003	7.539717E+003	-3.108572E+003	-1.166790E+003	-6.605026E+003	3.264575E+003	3.199051E+003	0.000000E+000	0.000000E+000	
-1.234116E+003	2.736800E+002	-3.068427E+003	-6.508497E+003	-1.120527E+004	1.912174E+003	9.328530E+003	-9.695209E+003	8.751801E+001	5.917976E+003	4.481643E+001	-1.382689E+003	0.000000E+000	-4.149667E+003	-2.751861E+003	-6.774417E+003	1.018497E+004	1.718950E+003	0.000000E+000	-6.697657E+003	2.127870E+003	3.742733E+003	8.116427E+003	2.759420E+002	3.714339E+003	2.911119E+003	7.536351E+003	-3.112673E+003	-1.166938E+003	-6.605081E+003	3.262791E+003	3.196513E+003	0.000000E+000	0.000000E+000	
-1.236709E+003	2.692664E+002	-3.068537E+003	-6.506364E+003	-1.120729E+004	1.906583E+003	9.327666E+003	-9.691807E+003	8.829039E+001	5.914390E+003	3.773628E+001	-1.381549E+003	0.000000E+000	-4.147203E+003	-2.753848E+003	-6.778352E+003	1.018451E+004	1.713911E+003	0.000000E+000	-6.695560E+003	2.128109E+003	3.741225E+003	8.118468E+003	2.811463E+002	3.713713E+003	2.911156E+003	7.539496E+003	-3.111882E+003	-1.166055E+003	-6.599031E+003	3.269338E+003	3.199713E+003	0.000000E+000	0.000000E+000	
-1.242851E+003	2.597588E+002	-3.070137E+003	-6.506345E+003	-1.121284E+004	1.898951E+003	9.326194E+003	-9.692027E+003	8.705827E+001	5.908597E+003	2.808153E+001	-1.381089E+003	0.000000E+000	-4.142182E+003	-2.756109E+003	-6.781681E+003	1.018422E+004	1.712330E+003	0.000000E+000	-6.691533E+003	2.124928E+003	3.738706E+003	8.123084E+003	2.921803E+002	3.714946E+003	2.908103E+003	7.542438E+003	-3.105280E+003	-1.162505E+003	-6.590057E+003	3.277540E+003	3.207952E+003	0.000000E+000	0.000000E+000	
-1.251145E+003	2.520717E+002	-3.074183E+003	-6.505113E+003	-1.121948E+004	1.886391E+003	9.323362E+003	-9.690151E+003	8.851107E+001	5.899328E+003	2.203122E+001	-1.378275E+003	0.000000E+000	-4.138964E+003	-2.758849E+003	-6.788742E+003	1.018302E+004	1.712458E+003	0.000000E+000	-6.688462E+003	2.119926E+003	3.734090E+003	8.126082E+003	3.054395E+002	3.715442E+003	2.908048E+003	7.544645E+003	-3.096674E+003	-1.159140E+003	-6.579317E+003	3.288776E+003	3.218894E+003	0.000000E+000	0.000000E+000	
-1.255945E+003	2.450100E+002	-3.077199E+003	-6.505794E+003	-1.122174E+004	1.879054E+003	9.319556E+003	-9.689269E+003	8.786743E+001	5.893701E+003	2.271165E+001	-1.378551E+003	0.000000E+000	-4.134899E+003	-2.761534E+003	-6.793708E+003	1.018028E+004	1.713562E+003	0.000000E+000	-6.688314E+003	2.117645E+003	3.731533E+003	8.131562E+003	3.131633E+002	3.717336E+003	2.906374E+003	7.547275E+003	-3.091819E+003	-1.157044E+003	-6.571942E+003	3.296352E+003	3.225110E+003	0.000000E+000	0.000000E+000	
-1.257766E+003	2.436859E+002	-3.077180E+003	-6.506732E+003	-1.122108E+004	1.880396E+003	9.318930E+003	-9.688827E+003	8.784903E+001	5.892965E+003	3.106071E+001	-1.378331E+003	0.000000E+000	-4.134348E+003	-2.760983E+003	-6.793469E+003	1.017986E+004	1.709461E+003	0.000000E+000	-6.687468E+003	2.116799E+003	3.730780E+003	8.131194E+003	3.150575E+002	3.716876E+003	2.906448E+003	7.546374E+003	-3.094412E+003	-1.156363E+003	-6.569828E+003	3.295672E+003	3.223638E+003	0.000000E+000	0.000000E+000	
-1.250759E+003	2.490742E+002	-3.074477E+003	-6.507798E+003	-1.122066E+004	1.882731E+003	9.318637E+003	-9.688239E+003	8.972481E+001	5.898115E+003	4.551525E+001	-1.378202E+003	0.000000E+000	-4.135157E+003	-2.760339E+003	-6.789938E+003	1.018135E+004	1.705397E+003	0.000000E+000	-6.687561E+003	2.120606E+003	3.733722E+003	8.125015E+003	3.082900E+002	3.716785E+003	2.906815E+003	7.544222E+003	-3.103717E+003	-1.158956E+003	-6.574683E+003	3.290376E+003	3.214333E+003	0.000000E+000	0.000000E+000	
-1.245371E+003	2.559704E+002	-3.071167E+003	-6.505389E+003	-1.121573E+004	1.890529E+003	9.319869E+003	-9.690886E+003	8.898921E+001	5.904018E+003	5.756070E+001	-1.378882E+003	0.000000E+000	-4.138725E+003	-2.756863E+003	-6.783869E+003	1.018179E+004	1.701498E+003	0.000000E+000	-6.690356E+003	2.124597E+003	3.737087E+003	8.120215E+003	2.995179E+002	3.715847E+003	2.909280E+003	7.539533E+003	-3.113335E+003	-1.160244E+003	-6.582609E+003	3.281788E+003	3.205506E+003	0.000000E+000	0.000000E+000	
-1.236838E+003	2.665631E+002	-3.066404E+003	-6.503219E+003	-1.120705E+004	1.905204E+003	9.320218E+003	-9.692229E+003	9.117762E+001	5.913544E+003	5.722968E+001	-1.379250E+003	0.000000E+000	-4.141060E+003	-2.753369E+003	-6.775483E+003	1.018556E+004	1.697103E+003	0.000000E+000	-6.691864E+003	2.131217E+003	3.740398E+003	8.113668E+003	2.864243E+002	3.716159E+003	2.910972E+003	7.534788E+003	-3.127551E+003	-1.162377E+003	-6.593054E+003	3.268804E+003	3.190720E+003	0.000000E+000	0.000000E+000	
-1.230401E+003	2.742501E+002	-3.063903E+003	-6.501932E+003	-1.120115E+004	1.914399E+003	9.319427E+003	-9.692854E+003	9.288789E+001	5.919245E+003	5.893995E+001	-1.380464E+003	0.000000E+000	-4.144996E+003	-2.749838E+003	-6.769120E+003	1.018749E+004	1.693241E+003	0.000000E+000	-6.692416E+003	2.136183E+003	3.744388E+003	8.110800E+003	2.767511E+002	3.715442E+003	2.913454E+003	7.532563E+003	-3.138529E+003	-1.164069E+003	-6.599932E+003	3.260234E+003	3.179962E+003	0.000000E+000	0.000000E+000	
-1.227772E+003	2.783143E+002	-3.062045E+003	-6.501233E+003	-1.120034E+004	1.915815E+003	9.319648E+003	-9.692431E+003	9.125118E+001	5.922205E+003	6.228693E+001	-1.379526E+003	0.000000E+000	-4.144462E+003	-2.751071E+003	-6.768274E+003	1.018817E+004	1.690372E+003	0.000000E+000	-6.692967E+003	2.138205E+003	3.747128E+003	8.108703E+003	2.736800E+002	3.716730E+003	2.913491E+003	7.533372E+003	-3.144984E+003	-1.166147E+003	-6.600833E+003	3.256703E+003	3.176321E+003	0.000000E+000	0.000000E+000	
-1.230328E+003	2.740662E+002	-3.063866E+003	-6.501968E+003	-1.120258E+004	1.912211E+003	9.319022E+003	-9.691824E+003	9.229941E+001	5.918196E+003	6.454891E+001	-1.379710E+003	0.000000E+000	-4.143322E+003	-2.751843E+003	-6.770886E+003	1.018771E+004	1.691715E+003	0.000000E+000	-6.692600E+003	2.137396E+003	3.743469E+003	8.110597E+003	2.786453E+002	3.716950E+003	2.913160E+003	7.533684E+003	-3.142502E+003	-1.163682E+003	-6.596677E+003	3.260326E+003	3.178123E+003	0.000000E+000	0.000000E+000	
-1.236470E+003	2.652390E+002	-3.066293E+003	-6.501858E+003	-1.120762E+004	1.904193E+003	9.313726E+003	-9.690316E+003	9.174772E+001	5.912146E+003	5.833308E+001	-1.379324E+003	0.000000E+000	-4.140435E+003	-2.754417E+003	-6.774324E+003	1.018611E+004	1.695687E+003	0.000000E+000	-6.690264E+003	2.134950E+003	3.742420E+003	8.114955E+003	2.882449E+002	3.717281E+003	2.911689E+003	7.538208E+003	-3.138603E+003	-1.162487E+003	-6.589174E+003	3.268675E+003	3.188477E+003	0.000000E+000	0.000000E+000	
-1.247854E+003	2.549773E+002	-3.070505E+003	-6.503661E+003	-1.121435E+004	1.894078E+003	9.309827E+003	-9.689434E+003	9.092016E+001	5.901793E+003	5.380914E+001	-1.378331E+003	0.000000E+000	-4.136867E+003	-2.757231E+003	-6.782361E+003	1.018348E+004	1.700873E+003	0.000000E+000	-6.685298E+003	2.129525E+003	3.737124E+003	8.121024E+003	3.020374E+002	3.718532E+003	2.910144E+003	7.542990E+003	-3.127808E+003	-1.159490E+003	-6.576908E+003	3.279618E+003	3.199695E+003	0.000000E+000	0.000000E+000	
-1.252396E+003	2.488719E+002	-3.072638E+003	-6.504138E+003	-1.121957E+004	1.884148E+003	9.308540E+003	-9.688956E+003	9.099372E+001	5.896919E+003	4.536813E+001	-1.376620E+003	0.000000E+000	-4.133263E+003	-2.760505E+003	-6.788558E+003	1.018249E+004	1.701903E+003	0.000000E+000	-6.683221E+003	2.126712E+003	3.733538E+003	8.126247E+003	3.094302E+002	3.718274E+003	2.908452E+003	7.547937E+003	-3.123192E+003	-1.156731E+003	-6.568890E+003	3.289732E+003	3.209644E+003	0.000000E+000	0.000000E+000	
-1.254658E+003	2.464076E+002	-3.073944E+003	-6.502336E+003	-1.122036E+004	1.881499E+003	9.307842E+003	-9.688367E+003	9.088338E+001	5.895209E+003	4.970817E+001	-1.377834E+003	0.000000E+000	-4.132178E+003	-2.761553E+003	-6.790324E+003	1.018087E+004	1.701259E+003	0.000000E+000	-6.682944E+003	2.124247E+003	3.732949E+003	8.128288E+003	3.126300E+002	3.718219E+003	2.908231E+003	7.548213E+003	-3.123891E+003	-1.154984E+003	-6.565800E+003	3.291387E+003	3.211519E+003	0.000000E+000	0.000000E+000	
-1.252285E+003	2.502511E+002	-3.072712E+003	-6.503219E+003	-1.121796E+004	1.884938E+003	9.308761E+003	-9.689563E+003	9.106728E+001	5.897563E+003	5.322066E+001	-1.378147E+003	0.000000E+000	-4.131718E+003	-2.762307E+003	-6.786370E+003	1.018256E+004	1.699512E+003	0.000000E+000	-6.683368E+003	2.128091E+003	3.733832E+003	8.127682E+003	3.070578E+002	3.717815E+003	2.908912E+003	7.547275E+003	-3.129426E+003	-1.157044E+003	-6.567566E+003	3.287323E+003	3.206333E+003	0.000000E+000	0.000000E+000	
-1.246014E+003	2.553820E+002	-3.068813E+003	-6.502189E+003	-1.121305E+004	1.892956E+003	9.311501E+003	-9.689324E+003	9.167416E+001	5.903116E+003	5.719290E+001	-1.378956E+003	0.000000E+000	-4.134550E+003	-2.760229E+003	-6.780577E+003	1.018477E+004	1.695760E+003	0.000000E+000	-6.685225E+003	2.132210E+003	3.737915E+003	8.124518E+003	2.988743E+002	3.718973E+003	2.910677E+003	7.543596E+003	-3.139357E+003	-1.158441E+003	-6.575474E+003	3.277742E+003	3.195428E+003	0.000000E+000	0.000000E+000	
-1.236507E+003	2.672251E+002	-3.064142E+003	-6.502594E+003	-1.120657E+004	1.905149E+003	9.314480E+003	-9.690078E+003	9.301662E+001	5.912054E+003	6.263634E+001	-1.380390E+003	0.000000E+000	-4.138706E+003	-2.754988E+003	-6.772614E+003	1.018648E+004	1.688423E+003	0.000000E+000	-6.685722E+003	2.137746E+003	3.741391E+003	8.120988E+003	2.867185E+002	3.717741E+003	2.913748E+003	7.539606E+003	-3.153885E+003	-1.162230E+003	-6.586140E+003	3.265660E+003	3.181783E+003	0.000000E+000	0.000000E+000	
-1.230162E+003	2.730915E+002	-3.060170E+003	-6.499799E+003	-1.119911E+004	1.915650E+003	9.320162E+003	-9.690795E+003	9.310857E+001	5.919649E+003	7.157389E+001	-1.381016E+003	0.000000E+000	-4.142458E+003	-2.750887E+003	-6.765552E+003	1.018742E+004	1.683531E+003	0.000000E+000	-6.688131E+003	2.143888E+003	3.745215E+003	8.111608E+003	2.759052E+002	3.717575E+003	2.914006E+003	7.535689E+003	-3.166317E+003	-1.165062E+003	-6.594029E+003	3.255380E+003	3.170160E+003	0.000000E+000	0.000000E+000	
-1.226595E+003	2.748202E+002	-3.058827E+003	-6.499504E+003	-1.119679E+004	1.920321E+003	9.322572E+003	-9.691365E+003	9.480045E+001	5.923732E+003	7.225431E+001	-1.381071E+003	0.000000E+000	-4.143065E+003	-2.750041E+003	-6.762224E+003	1.018859E+004	1.681195E+003	0.000000E+000	-6.688131E+003	2.146849E+003	3.747533E+003	8.108336E+003	2.700020E+002	3.718182E+003	2.917206E+003	7.534144E+003	-3.173893E+003	-1.165742E+003	-6.598516E+003	3.249623E+003	3.165618E+003	0.000000E+000	0.000000E+000	
-1.227036E+003	2.736248E+002	-3.059783E+003	-6.499026E+003	-1.119800E+004	1.918243E+003	9.321082E+003	-9.691549E+003	9.520503E+001	5.921911E+003	7.067277E+001	-1.380721E+003	0.000000E+000	-4.140251E+003	-2.751861E+003	-6.762500E+003	1.018790E+004	1.680809E+003	0.000000E+000	-6.687855E+003	2.144476E+003	3.746172E+003	8.108997E+003	2.716755E+002	3.718752E+003	2.917077E+003	7.534825E+003	-3.173507E+003	-1.163848E+003	-6.594139E+003	3.252124E+003	3.166960E+003	0.000000E+000	0.000000E+000	
-1.234778E+003	2.663240E+002	-3.062542E+003	-6.498769E+003	-1.120321E+004	1.909489E+003	9.316411E+003	-9.690041E+003	9.480045E+001	5.915438E+003	6.953259E+001	-1.379783E+003	0.000000E+000	-4.137971E+003	-2.753314E+003	-6.767539E+003	1.018591E+004	1.683218E+003	0.000000E+000	-6.685482E+003	2.141552E+003	3.743873E+003	8.112583E+003	2.794177E+002	3.719745E+003	2.915496E+003	7.538448E+003	-3.165967E+003	-1.161420E+003	-6.587482E+003	3.260749E+003	3.175806E+003	0.000000E+000	0.000000E+000	
-1.243219E+003	2.557497E+002	-3.066827E+003	-6.499909E+003	-1.120924E+004	1.898547E+003	9.313524E+003	-9.688110E+003	9.246492E+001	5.907034E+003	6.375813E+001	-1.378882E+003	0.000000E+000	-4.134293E+003	-2.756863E+003	-6.774196E+003	1.018512E+004	1.688018E+003	0.000000E+000	-6.682871E+003	2.137102E+003	3.739570E+003	8.119406E+003	2.917941E+002	3.720407E+003	2.913031E+003	7.543155E+003	-3.158336E+003	-1.158717E+003	-6.575197E+003	3.271360E+003	3.186987E+003	0.000000E+000	0.000000E+000	
-1.250833E+003	2.474926E+002	-3.069935E+003	-6.500902E+003	-1.121573E+004	1.888837E+003	9.312844E+003	-9.688625E+003	9.147186E+001	5.898445E+003	6.270990E+001	-1.378662E+003	0.000000E+000	-4.130891E+003	-2.760523E+003	-6.779106E+003	1.018332E+004	1.692266E+003	0.000000E+000	-6.680241E+003	2.131769E+003	3.737896E+003	8.123286E+003	3.013202E+002	3.718973E+003	2.911799E+003	7.547514E+003	-3.151384E+003	-1.155903E+003	-6.564623E+003	3.281015E+003	3.196789E+003	0.000000E+000	0.000000E+000	
-1.255136E+003	2.430055E+002	-3.071645E+003	-6.501527E+003	-1.121801E+004	1.883173E+003	9.312697E+003	-9.688331E+003	9.117762E+001	5.895577E+003	6.333516E+001	-1.379177E+003	0.000000E+000	-4.130045E+003	-2.763576E+003	-6.777341E+003	1.018085E+004	1.694491E+003	0.000000E+000	-6.677758E+003	2.130647E+003	3.734439E+003	8.125291E+003	3.041522E+002	3.719470E+003	2.911431E+003	7.549445E+003	-3.147853E+003	-1.154506E+003	-6.561037E+003	3.285024E+003	3.202159E+003	0.000000E+000	0.000000E+000	
-1.252764E+003	2.439250E+002	-3.071148E+003	-6.501086E+003	-1.121810E+004	1.884460E+003	9.315473E+003	-9.687006E+003	9.095694E+001	5.896735E+003	6.532128E+001	-1.379471E+003	0.000000E+000	-4.128647E+003	-2.762601E+003	-6.774710E+003	1.018109E+004	1.693664E+003	0.000000E+000	-6.678145E+003	2.130022E+003	3.735818E+003	8.124279E+003	3.032143E+002	3.719286E+003	2.910365E+003	7.548047E+003	-3.152248E+003	-1.155444E+003	-6.563373E+003	3.282817E+003	3.199474E+003	0.000000E+000	0.000000E+000	
-1.246934E+003	2.484489E+002	-3.069181E+003	-6.501031E+003	-1.121299E+004	1.891779E+003	9.319592E+003	-9.689673E+003	9.189484E+001	5.901976E+003	7.043370E+001	-1.379747E+003	0.000000E+000	-4.131828E+003	-2.760247E+003	-6.768642E+003	1.018317E+004	1.690777E+003	0.000000E+000	-6.677612E+003	2.135539E+003	3.738191E+003	8.119351E+003	2.946078E+002	3.718771E+003	2.911670E+003	7.545473E+003	-3.163080E+003	-1.156437E+003	-6.569239E+003	3.275241E+003	3.190021E+003	0.000000E+000	0.000000E+000	
-1.239045E+003	2.578646E+002	-3.065098E+003	-6.499744E+003	-1.120580E+004	1.903402E+003	9.325349E+003	-9.690427E+003	9.149026E+001	5.910086E+003	7.652080E+001	-1.380997E+003	0.000000E+000	-4.136757E+003	-2.756679E+003	-6.760606E+003	1.018504E+004	1.684782E+003	0.000000E+000	-6.680425E+003	2.140431E+003	3.742034E+003	8.114091E+003	2.819003E+002	3.718458E+003	2.915072E+003	7.539827E+003	-3.174684E+003	-1.158975E+003	-6.577129E+003	3.263287E+003	3.177204E+003	0.000000E+000	0.000000E+000	
-1.231707E+003	2.664343E+002	-3.060777E+003	-6.498861E+003	-1.119947E+004	1.913792E+003	9.328162E+003	-9.690850E+003	9.393612E+001	5.917921E+003	8.349060E+001	-1.381696E+003	0.000000E+000	-4.139791E+003	-2.753737E+003	-6.751539E+003	1.018676E+004	1.679706E+003	0.000000E+000	-6.683533E+003	2.145929E+003	3.745712E+003	8.108409E+003	2.703514E+002	3.718605E+003	2.917334E+003	7.536884E+003	-3.187668E+003	-1.162910E+003	-6.586949E+003	3.251242E+003	3.164846E+003	0.000000E+000	0.000000E+000	
-1.226466E+003	2.720985E+002	-3.057374E+003	-6.497831E+003	-1.119655E+004	1.919181E+003	9.330019E+003	-9.691016E+003	9.485563E+001	5.923989E+003	8.613876E+001	-1.381806E+003	0.000000E+000	-4.139938E+003	-2.753075E+003	-6.748137E+003	1.018950E+004	1.676764E+003	0.000000E+000	-6.683901E+003	2.149092E+003	3.747992E+003	8.105687E+003	2.618920E+002	3.718477E+003	2.917390E+003	7.535211E+003	-3.197065E+003	-1.163094E+003	-6.593054E+003	3.244860E+003	3.156552E+003	0.000000E+000	0.000000E+000	
-1.227588E+003	2.702962E+002	-3.057209E+003	-6.497555E+003	-1.119616E+004	1.918279E+003	9.331914E+003	-9.690979E+003	9.535215E+001	5.922776E+003	8.521926E+001	-1.381530E+003	0.000000E+000	-4.140968E+003	-2.752689E+003	-6.747015E+003	1.018742E+004	1.676028E+003	0.000000E+000	-6.681584E+003	2.150085E+003	3.747073E+003	8.105724E+003	2.619288E+002	3.719672E+003	2.918346E+003	7.535505E+003	-3.198922E+003	-1.163388E+003	-6.591877E+003	3.245706E+003	3.156404E+003	0.000000E+000	0.000000E+000	
-1.232498E+003	2.638046E+002	-3.060960E+003	-6.497169E+003	-1.120028E+004	1.912082E+003	9.329504E+003	-9.690243E+003	9.413841E+001	5.917884E+003	8.336188E+001	-1.381806E+003	0.000000E+000	-4.138394E+003	-2.754381E+003	-6.751521E+003	1.018606E+004	1.678363E+003	0.000000E+000	-6.678825E+003	2.146389E+003	3.744995E+003	8.108813E+003	2.699836E+002	3.718237E+003	2.917537E+003	7.538117E+003	-3.193975E+003	-1.161329E+003	-6.583455E+003	3.251518E+003	3.164386E+003	0.000000E+000	0.000000E+000	
-1.241380E+003	2.548302E+002	-3.065576E+003	-6.496911E+003	-1.120688E+004	1.902335E+003	9.322977E+003	-9.690390E+003	9.469011E+001	5.909056E+003	8.135736E+001	-1.379783E+003	0.000000E+000	-4.134679E+003	-2.757672E+003	-6.757755E+003	1.018582E+004	1.682943E+003	0.000000E+000	-6.675736E+003	2.141791E+003	3.741243E+003	8.113852E+003	2.813118E+002	3.718366E+003	2.916397E+003	7.541610E+003	-3.185093E+003	-1.158441E+003	-6.574094E+003	3.261816E+003	3.174537E+003	0.000000E+000	0.000000E+000	
-1.248350E+003	2.449732E+002	-3.068813E+003	-6.497905E+003	-1.121183E+004	1.891117E+003	9.312660E+003	-9.687521E+003	9.402807E+001	5.900634E+003	7.753224E+001	-1.379599E+003	0.000000E+000	-4.131957E+003	-2.760836E+003	-6.761838E+003	1.018238E+004	1.686271E+003	0.000000E+000	-6.671377E+003	2.136900E+003	3.737437E+003	8.119351E+003	2.922171E+002	3.719709E+003	2.916360E+003	7.546226E+003	-3.176983E+003	-1.155241E+003	-6.562637E+003	3.272298E+003	3.185167E+003	0.000000E+000	0.000000E+000	
-1.251329E+003	2.401918E+002	-3.070395E+003	-6.499339E+003	-1.121422E+004	1.885490E+003	9.309772E+003	-9.685719E+003	9.224424E+001	5.897030E+003	7.519671E+001	-1.380133E+003	0.000000E+000	-4.130394E+003	-2.762197E+003	-6.764339E+003	1.018041E+004	1.688184E+003	0.000000E+000	-6.671580E+003	2.134619E+003	3.735818E+003	8.121980E+003	2.972560E+002	3.720168E+003	2.915735E+003	7.548249E+003	-3.174132E+003	-1.152005E+003	-6.554729E+003	3.277742E+003	3.190628E+003	0.000000E+000	0.000000E+000	
-1.251495E+003	2.407619E+002	-3.070303E+003	-6.499725E+003	-1.121442E+004	1.885784E+003	9.308982E+003	-9.685774E+003	9.150864E+001	5.898354E+003	7.699893E+001	-1.380298E+003	0.000000E+000	-4.127820E+003	-2.762068E+003	-6.763806E+003	1.018183E+004	1.686234E+003	0.000000E+000	-6.670954E+003	2.133865E+003	3.735873E+003	8.122403E+003	2.967594E+002	3.719856E+003	2.915827E+003	7.547808E+003	-3.176468E+003	-1.152667E+003	-6.554840E+003	3.277907E+003	3.189985E+003	0.000000E+000	0.000000E+000	
-1.248975E+003	2.446790E+002	-3.068004E+003	-6.499100E+003	-1.121111E+004	1.892074E+003	9.313432E+003	-9.686565E+003	9.250170E+001	5.901407E+003	8.253432E+001	-1.379820E+003	0.000000E+000	-4.130946E+003	-2.760597E+003	-6.757957E+003	1.018061E+004	1.683678E+003	0.000000E+000	-6.670127E+003	2.137783E+003	3.738025E+003	8.119222E+003	2.920332E+002	3.718403E+003	2.916912E+003	7.544774E+003	-3.186362E+003	-1.152777E+003	-6.559548E+003	3.270809E+003	3.183401E+003	0.000000E+000	0.000000E+000	
-1.240461E+003	2.539843E+002	-3.064160E+003	-6.497941E+003	-1.120576E+004	1.900533E+003	9.319298E+003	-9.689231E+003	9.257526E+001	5.909001E+003	9.147186E+001	-1.380059E+003	0.000000E+000	-4.133355E+003	-2.759070E+003	-6.749277E+003	1.018289E+004	1.680423E+003	0.000000E+000	-6.672370E+003	2.141626E+003	3.741078E+003	8.113540E+003	2.812383E+002	3.717447E+003	2.918438E+003	7.542695E+003	-3.198205E+003	-1.155775E+003	-6.571152E+003	3.260805E+003	3.170234E+003	0.000000E+000	0.000000E+000	
-1.231468E+003	2.611196E+002	-3.061843E+003	-6.496819E+003	-1.119940E+004	1.912983E+003	9.324650E+003	-9.689544E+003	9.369705E+001	5.915346E+003	1.010163E+002	-1.380261E+003	0.000000E+000	-4.138688E+003	-2.756091E+003	-6.740377E+003	1.018602E+004	1.678198E+003	0.000000E+000	-6.674209E+003	2.147823E+003	3.746209E+003	8.108556E+003	2.681998E+002	3.715534E+003	2.921399E+003	7.537804E+003	-3.214370E+003	-1.159306E+003	-6.580292E+003	3.248612E+003	3.156037E+003	0.000000E+000	0.000000E+000	
-1.226613E+003	2.677032E+002	-3.057853E+003	-6.496709E+003	-1.119484E+004	1.920688E+003	9.327832E+003	-9.690354E+003	9.384417E+001	5.923162E+003	1.068827E+002	-1.380298E+003	0.000000E+000	-4.141465E+003	-2.753682E+003	-6.735926E+003	1.018791E+004	1.678327E+003	0.000000E+000	-6.676747E+003	2.153322E+003	3.747772E+003	8.104878E+003	2.607886E+002	3.714063E+003	2.921399E+003	7.534769E+003	-3.225772E+003	-1.161476E+003	-6.589045E+003	3.239822E+003	3.147908E+003	0.000000E+000	0.000000E+000	
-1.228912E+003	2.667286E+002	-3.057338E+003	-6.496617E+003	-1.119559E+004	1.919456E+003	9.326802E+003	-9.689967E+003	9.347637E+001	5.921691E+003	1.120871E+002	-1.382156E+003	0.000000E+000	-4.142366E+003	-2.753866E+003	-6.734639E+003	1.018810E+004	1.684616E+003	0.000000E+000	-6.676380E+003	2.154517E+003	3.748029E+003	8.103958E+003	2.615610E+002	3.712095E+003	2.921638E+003	7.535928E+003	-3.229395E+003	-1.161531E+003	-6.588439E+003	3.239527E+003	3.147136E+003	0.000000E+000	0.000000E+000	
-1.234447E+003	2.599978E+002	-3.061365E+003	-6.497095E+003	-1.119907E+004	1.912303E+003	9.331528E+003	-9.689084E+003	9.336603E+001	5.914647E+003	1.129330E+002	-1.381990E+003	0.000000E+000	-4.140472E+003	-2.758445E+003	-6.735834E+003	1.018455E+004	1.693517E+003	0.000000E+000	-6.676563E+003	2.153653E+003	3.745878E+003	8.105540E+003	2.681446E+002	3.713493E+003	2.921288E+003	7.536424E+003	-3.228291E+003	-1.160207E+003	-6.581910E+003	3.244585E+003	3.153094E+003	0.000000E+000	0.000000E+000	
-1.242576E+003	2.512810E+002	-3.067526E+003	-6.499891E+003	-1.120690E+004	1.901232E+003	9.333569E+003	-9.688514E+003	9.134314E+001	5.907328E+003	1.119215E+002	-1.381181E+003	0.000000E+000	-4.138063E+003	-2.761075E+003	-6.740230E+003	1.018120E+004	1.706610E+003	0.000000E+000	-6.673032E+003	2.148853E+003	3.741078E+003	8.107930E+003	2.791970E+002	3.712960E+003	2.918254E+003	7.539624E+003	-3.221156E+003	-1.156970E+003	-6.571888E+003	3.254313E+003	3.162841E+003	0.000000E+000	0.000000E+000	
-1.253113E+003	2.400815E+002	-3.072381E+003	-6.499982E+003	-1.121503E+004	1.886796E+003	9.327041E+003	-9.689452E+003	8.913633E+001	5.896974E+003	1.087952E+002	-1.381346E+003	0.000000E+000	-4.134311E+003	-2.766132E+003	-6.747199E+003	1.017725E+004	1.740411E+003	0.000000E+000	-6.670770E+003	2.141791E+003	3.734034E+003	8.112933E+003	2.917941E+002	3.713125E+003	2.914337E+003	7.543026E+003	-3.213855E+003	-1.154487E+003	-6.560559E+003	3.266561E+003	3.175015E+003	0.000000E+000	0.000000E+000	
-1.261517E+003	2.330197E+002	-3.077511E+003	-6.501968E+003	-1.122070E+004	1.879348E+003	9.322057E+003	-9.690997E+003	8.648817E+001	5.889747E+003	1.065517E+002	-1.383075E+003	0.000000E+000	-4.132785E+003	-2.771097E+003	-6.751116E+003	1.017337E+004	1.772833E+003	0.000000E+000	-6.669336E+003	2.138904E+003	3.730356E+003	8.114735E+003	3.009891E+002	3.711764E+003	2.913693E+003	7.544277E+003	-3.210398E+003	-1.152593E+003	-6.551971E+003	3.273181E+003	3.184100E+003	0.000000E+000	0.000000E+000	
-1.262805E+003	2.305370E+002	-3.077438E+003	-6.503219E+003	-1.122044E+004	1.878722E+003	9.320034E+003	-9.690556E+003	8.564223E+001	5.888276E+003	1.105607E+002	-1.383498E+003	0.000000E+000	-4.131167E+003	-2.771116E+003	-6.747162E+003	1.017269E+004	1.769173E+003	0.000000E+000	-6.669814E+003	2.139861E+003	3.731313E+003	8.113613E+003	3.046303E+002	3.712868E+003	2.914374E+003	7.543928E+003	-3.212990E+003	-1.152740E+003	-6.550647E+003	3.274597E+003	3.183199E+003	0.000000E+000	0.000000E+000	
-1.258685E+003	2.345829E+002	-3.074146E+003	-6.502465E+003	-1.121733E+004	1.882805E+003	9.316227E+003	-9.690464E+003	8.584452E+001	5.892138E+003	1.176776E+002	-1.381917E+003	0.000000E+000	-4.133079E+003	-2.770031E+003	-6.741554E+003	1.017397E+004	1.765642E+003	0.000000E+000	-6.671304E+003	2.142582E+003	3.733483E+003	8.111535E+003	3.000145E+002	3.711580E+003	2.914116E+003	7.543339E+003	-3.224098E+003	-1.154101E+003	-6.554785E+003	3.271508E+003	3.177093E+003	0.000000E+000	0.000000E+000	
-1.251274E+003	2.424722E+002	-3.071351E+003	-6.501270E+003	-1.121054E+004	1.892570E+003	9.316779E+003	-9.690924E+003	8.801455E+001	5.900174E+003	1.279392E+002	-1.382560E+003	0.000000E+000	-4.136941E+003	-2.767309E+003	-6.729784E+003	1.017734E+004	1.756429E+003	0.000000E+000	-6.673768E+003	2.147088E+003	3.736076E+003	8.108740E+003	2.911137E+002	3.710624E+003	2.915955E+003	7.540213E+003	-3.240024E+003	-1.156878E+003	-6.564660E+003	3.260326E+003	3.165949E+003	0.000000E+000	0.000000E+000	
-1.240865E+003	2.534326E+002	-3.066367E+003	-6.497978E+003	-1.120299E+004	1.904708E+003	9.318490E+003	-9.690592E+003	8.959608E+001	5.909995E+003	1.400950E+002	-1.382836E+003	0.000000E+000	-4.139994E+003	-2.762307E+003	-6.714373E+003	1.018096E+004	1.731051E+003	0.000000E+000	-6.676380E+003	2.152697E+003	3.742862E+003	8.103002E+003	2.793257E+002	3.711452E+003	2.918511E+003	7.535046E+003	-3.260087E+003	-1.160740E+003	-6.576191E+003	3.247361E+003	3.153205E+003	0.000000E+000	0.000000E+000	
-1.234098E+003	2.608805E+002	-3.061696E+003	-6.497169E+003	-1.119837E+004	1.914381E+003	9.322204E+003	-9.690795E+003	9.003744E+001	5.918233E+003	1.498601E+002	-1.383149E+003	0.000000E+000	-4.142973E+003	-2.759272E+003	-6.703008E+003	1.018197E+004	1.716118E+003	0.000000E+000	-6.678016E+003	2.157000E+003	3.747956E+003	8.099692E+003	2.701675E+002	3.709741E+003	2.921822E+003	7.532048E+003	-3.276344E+003	-1.162119E+003	-6.585128E+003	3.237376E+003	3.142778E+003	0.000000E+000	0.000000E+000	
-1.232112E+003	2.621495E+002	-3.060519E+003	-6.496341E+003	-1.119789E+004	1.917562E+003	9.322204E+003	-9.690813E+003	9.035007E+001	5.919465E+003	1.545863E+002	-1.381163E+003	0.000000E+000	-4.142973E+003	-2.759512E+003	-6.698319E+003	1.018304E+004	1.712790E+003	0.000000E+000	-6.680572E+003	2.159078E+003	3.749243E+003	8.098699E+003	2.688066E+002	3.711157E+003	2.920369E+003	7.532765E+003	-3.286201E+003	-1.164308E+003	-6.587464E+003	3.235426E+003	3.140718E+003	0.000000E+000	0.000000E+000	
-1.237408E+003	2.576071E+002	-3.063498E+003	-6.495624E+003	-1.119929E+004	1.912395E+003	9.319501E+003	-9.689452E+003	9.042364E+001	5.915180E+003	1.569954E+002	-1.380298E+003	0.000000E+000	-4.140601E+003	-2.759861E+003	-6.699919E+003	1.017958E+004	1.703944E+003	0.000000E+000	-6.677372E+003	2.157257E+003	3.748140E+003	8.099600E+003	2.753167E+002	3.712463E+003	2.920737E+003	7.534880E+003	-3.285263E+003	-1.162947E+003	-6.579961E+003	3.241697E+003	3.146290E+003	0.000000E+000	0.000000E+000	
-1.245684E+003	2.488351E+002	-3.066808E+003	-6.496029E+003	-1.120418E+004	1.902758E+003	9.315179E+003	-9.689416E+003	9.029490E+001	5.908781E+003	1.555978E+002	-1.378662E+003	0.000000E+000	-4.135323E+003	-2.762877E+003	-6.702254E+003	1.017876E+004	1.687981E+003	0.000000E+000	-6.674154E+003	2.152991E+003	3.746246E+003	8.103498E+003	2.890356E+002	3.714394E+003	2.918640E+003	7.540783E+003	-3.282247E+003	-1.158827E+003	-6.569257E+003	3.253890E+003	3.158262E+003	0.000000E+000	0.000000E+000	
-1.253977E+003	2.387574E+002	-3.072583E+003	-6.495440E+003	-1.121100E+004	1.889904E+003	9.307032E+003	-9.688937E+003	8.849268E+001	5.901664E+003	1.527290E+002	-1.378864E+003	0.000000E+000	-4.130100E+003	-2.767051E+003	-6.707716E+003	1.017662E+004	1.679798E+003	0.000000E+000	-6.671451E+003	2.148485E+003	3.742843E+003	8.109715E+003	3.046303E+002	3.715755E+003	2.917334E+003	7.544865E+003	-3.273659E+003	-1.153862E+003	-6.554270E+003	3.268197E+003	3.172312E+003	0.000000E+000	0.000000E+000	
-1.261315E+003	2.309048E+002	-3.077180E+003	-6.498585E+003	-1.121691E+004	1.880010E+003	9.303722E+003	-9.688772E+003	8.694793E+001	5.892524E+003	1.498601E+002	-1.379618E+003	0.000000E+000	-4.127010E+003	-2.771134E+003	-6.709849E+003	1.017276E+004	1.697526E+003	0.000000E+000	-6.670697E+003	2.141258E+003	3.739331E+003	8.111940E+003	3.157379E+002	3.717594E+003	2.915808E+003	7.548654E+003	-3.270202E+003	-1.150846E+003	-6.544100E+003	3.278735E+003	3.183144E+003	0.000000E+000	0.000000E+000	
-1.263926E+003	2.282935E+002	-3.077990E+003	-6.499283E+003	-1.121781E+004	1.876534E+003	9.303961E+003	-9.689894E+003	8.540316E+001	5.889416E+003	1.514968E+002	-1.378404E+003	0.000000E+000	-4.124822E+003	-2.771814E+003	-6.709463E+003	1.017259E+004	1.700818E+003	0.000000E+000	-6.670587E+003	2.139180E+003	3.738191E+003	8.112455E+003	3.198757E+002	3.717557E+003	2.916948E+003	7.548562E+003	-3.275112E+003	-1.150901E+003	-6.540257E+003	3.281291E+003	3.188146E+003	0.000000E+000	0.000000E+000	
-1.261205E+003	2.312543E+002	-3.076850E+003	-6.498327E+003	-1.121628E+004	1.882235E+003	9.303170E+003	-9.689195E+003	8.783065E+001	5.892395E+003	1.555058E+002	-1.378533E+003	0.000000E+000	-4.126698E+003	-2.768982E+003	-6.701997E+003	1.017401E+004	1.695227E+003	0.000000E+000	-6.671010E+003	2.140026E+003	3.740066E+003	8.111572E+003	3.153149E+002	3.717520E+003	2.918328E+003	7.548065E+003	-3.288776E+003	-1.151711E+003	-6.542703E+003	3.276694E+003	3.183585E+003	0.000000E+000	0.000000E+000	
-1.254566E+003	2.378747E+002	-3.072785E+003	-6.498125E+003	-1.120983E+004	1.890658E+003	9.306278E+003	-9.689654E+003	8.852946E+001	5.899898E+003	1.637446E+002	-1.377705E+003	0.000000E+000	-4.128684E+003	-2.767254E+003	-6.689436E+003	1.017425E+004	1.695540E+003	0.000000E+000	-6.672333E+003	2.142692E+003	3.743597E+003	8.106717E+003	3.055131E+002	3.716123E+003	2.918677E+003	7.543707E+003	-3.307625E+003	-1.154543E+003	-6.551033E+003	3.266855E+003	3.173047E+003	0.000000E+000	0.000000E+000	
-1.245352E+003	2.484673E+002	-3.067526E+003	-6.494428E+003	-1.120074E+004	1.903843E+003	9.308927E+003	-9.689931E+003	8.849268E+001	5.908284E+003	1.727741E+002	-1.375204E+003	0.000000E+000	-4.132068E+003	-2.764661E+003	-6.671028E+003	1.017837E+004	1.692836E+003	0.000000E+000	-6.676508E+003	2.146720E+003	3.749960E+003	8.101494E+003	2.910953E+002	3.715902E+003	2.920185E+003	7.537822E+003	-3.332617E+003	-1.161292E+003	-6.565745E+003	3.252860E+003	3.159273E+003	0.000000E+000	0.000000E+000	
-1.237316E+003	2.574968E+002	-3.062855E+003	-6.491063E+003	-1.119423E+004	1.915631E+003	9.311446E+003	-9.689544E+003	9.077304E+001	5.915695E+003	1.803691E+002	-1.374322E+003	0.000000E+000	-4.135580E+003	-2.760946E+003	-6.655488E+003	1.018162E+004	1.686823E+003	0.000000E+000	-6.679285E+003	2.150122E+003	3.753804E+003	8.098681E+003	2.809073E+002	3.714780E+003	2.921086E+003	7.535579E+003	-3.359853E+003	-1.164951E+003	-6.576577E+003	3.240263E+003	3.147081E+003	0.000000E+000	0.000000E+000	
-1.233601E+003	2.595197E+002	-3.060537E+003	-6.490475E+003	-1.119188E+004	1.920321E+003	9.311961E+003	-9.688735E+003	9.195000E+001	5.920643E+003	1.851505E+002	-1.372335E+003	0.000000E+000	-4.135378E+003	-2.759732E+003	-6.643278E+003	1.018219E+004	1.675458E+003	0.000000E+000	-6.679855E+003	2.152586E+003	3.755753E+003	8.095830E+003	2.759787E+002	3.714192E+003	2.921822E+003	7.535450E+003	-3.377011E+003	-1.164731E+003	-6.578710E+003	3.235426E+003	3.142355E+003	0.000000E+000	0.000000E+000	
-1.236470E+003	2.568531E+002	-3.062450E+003	-6.490328E+003	-1.119493E+004	1.917433E+003	9.310673E+003	-9.688827E+003	9.143508E+001	5.917387E+003	1.841758E+002	-1.368363E+003	0.000000E+000	-4.132895E+003	-2.760872E+003	-6.636216E+003	1.018036E+004	1.665674E+003	0.000000E+000	-6.680094E+003	2.150821E+003	3.755624E+003	8.095407E+003	2.795280E+002	3.715792E+003	2.921932E+003	7.537767E+003	-3.374510E+003	-1.164105E+003	-6.574168E+003	3.236806E+003	3.146989E+003	0.000000E+000	0.000000E+000	
-1.244635E+003	2.490742E+002	-3.066330E+003	-6.491928E+003	-1.119848E+004	1.907337E+003	9.306462E+003	-9.689691E+003	9.011100E+001	5.910491E+003	1.810680E+002	-1.371250E+003	0.000000E+000	-4.129695E+003	-2.763760E+003	-6.634156E+003	1.017732E+004	1.659109E+003	0.000000E+000	-6.678770E+003	2.147952E+003	3.752737E+003	8.099011E+003	2.903229E+002	3.716821E+003	2.921252E+003	7.539367E+003	-3.359669E+003	-1.161862E+003	-6.563483E+003	3.247527E+003	3.158078E+003	0.000000E+000	0.000000E+000	
-1.254823E+003	2.375436E+002	-3.072031E+003	-6.494190E+003	-1.120753E+004	1.894299E+003	9.299768E+003	-9.690133E+003	8.646978E+001	5.901590E+003	1.753303E+002	-1.372244E+003	0.000000E+000	-4.124031E+003	-2.769001E+003	-6.639195E+003	1.017385E+004	1.664479E+003	0.000000E+000	-6.676747E+003	2.143612E+003	3.750291E+003	8.103645E+003	3.030488E+002	3.718716E+003	2.919449E+003	7.544608E+003	-3.344222E+003	-1.158221E+003	-6.548716E+003	3.261136E+003	3.173415E+003	0.000000E+000	0.000000E+000	
-1.263301E+003	2.278889E+002	-3.077419E+003	-6.496489E+003	-1.121371E+004	1.883890E+003	9.295464E+003	-9.691935E+003	8.372968E+001	5.892542E+003	1.683788E+002	-1.372795E+003	0.000000E+000	-4.118919E+003	-2.773322E+003	-6.642468E+003	1.017002E+004	1.670088E+003	0.000000E+000	-6.673216E+003	2.138757E+003	3.746815E+003	8.106717E+003	3.143771E+002	3.721456E+003	2.917923E+003	7.547661E+003	-3.332397E+003	-1.154469E+003	-6.533857E+003	3.271912E+003	3.186987E+003	0.000000E+000	0.000000E+000	
-1.266961E+003	2.245419E+002	-3.078744E+003	-6.497960E+003	-1.121764E+004	1.878833E+003	9.292192E+003	-9.692965E+003	8.220330E+001	5.888956E+003	1.666686E+002	-1.371103E+003	0.000000E+000	-4.117116E+003	-2.774003E+003	-6.643167E+003	1.016969E+004	1.673453E+003	0.000000E+000	-6.672499E+003	2.138021E+003	3.744627E+003	8.107875E+003	3.188826E+002	3.721290E+003	2.918273E+003	7.548783E+003	-3.330595E+003	-1.152299E+003	-6.528156E+003	3.275590E+003	3.193387E+003	0.000000E+000	0.000000E+000	
-1.266225E+003	2.242477E+002	-3.080380E+003	-6.497297E+003	-1.121674E+004	1.881132E+003	9.293111E+003	-9.693811E+003	8.247915E+001	5.889508E+003	1.696661E+002	-1.370570E+003	0.000000E+000	-4.118165E+003	-2.774665E+003	-6.636786E+003	1.016965E+004	1.677058E+003	0.000000E+000	-6.674724E+003	2.139474E+003	3.746521E+003	8.104583E+003	3.152046E+002	3.720849E+003	2.919486E+003	7.547790E+003	-3.333464E+003	-1.153991E+003	-6.530547E+003	3.273806E+003	3.192853E+003	0.000000E+000	0.000000E+000	
-1.259733E+003	2.298750E+002	-3.076445E+003	-6.496231E+003	-1.121108E+004	1.887531E+003	9.297249E+003	-9.691603E+003	8.338026E+001	5.894216E+003	1.753671E+002	-1.370037E+003	0.000000E+000	-4.119103E+003	-2.772955E+003	-6.629632E+003	1.017129E+004	1.671007E+003	0.000000E+000	-6.677354E+003	2.142417E+003	3.751505E+003	8.102138E+003	3.060464E+002	3.721566E+003	2.919909E+003	7.543689E+003	-3.345822E+003	-1.156198E+003	-6.537112E+003	3.263545E+003	3.183015E+003	0.000000E+000	0.000000E+000	
-1.250630E+003	2.403389E+002	-3.071608E+003	-6.495073E+003	-1.120269E+004	1.901857E+003	9.303906E+003	-9.693314E+003	8.431816E+001	5.902730E+003	1.843782E+002	-1.368382E+003	0.000000E+000	-4.124160E+003	-2.769056E+003	-6.620308E+003	1.017368E+004	1.667495E+003	0.000000E+000	-6.679708E+003	2.144348E+003	3.756268E+003	8.096014E+003	2.918309E+002	3.719782E+003	2.920829E+003	7.540121E+003	-3.363862E+003	-1.160335E+003	-6.548771E+003	3.248244E+003	3.172091E+003	0.000000E+000	0.000000E+000	
-1.241840E+003	2.506189E+002	-3.066018E+003	-6.492590E+003	-1.119651E+004	1.913921E+003	9.309680E+003	-9.692082E+003	8.564223E+001	5.912551E+003	1.921019E+002	-1.368878E+003	0.000000E+000	-4.127047E+003	-2.766040E+003	-6.612401E+003	1.017815E+004	1.667274E+003	0.000000E+000	-6.683294E+003	2.149423E+003	3.761178E+003	8.089412E+003	2.773764E+002	3.718605E+003	2.922870E+003	7.535119E+003	-3.381645E+003	-1.166055E+003	-6.562784E+003	3.232778E+003	3.160708E+003	0.000000E+000	0.000000E+000	
-1.238438E+003	2.544441E+002	-3.063333E+003	-6.492442E+003	-1.119337E+004	1.920339E+003	9.314131E+003	-9.692211E+003	8.635944E+001	5.915990E+003	1.949708E+002	-1.369485E+003	0.000000E+000	-4.129714E+003	-2.765378E+003	-6.608483E+003	1.017956E+004	1.672607E+003	0.000000E+000	-6.685924E+003	2.150582E+003	3.764010E+003	8.087168E+003	2.690825E+002	3.717778E+003	2.922907E+003	7.532397E+003	-3.389112E+003	-1.169494E+003	-6.567768E+003	3.224613E+003	3.158593E+003	0.000000E+000	0.000000E+000	
-1.238861E+003	2.522556E+002	-3.064436E+003	-6.493399E+003	-1.119449E+004	1.917489E+003	9.314480E+003	-9.692395E+003	8.560545E+001	5.914941E+003	1.942352E+002	-1.370662E+003	0.000000E+000	-4.128187E+003	-2.767198E+003	-6.612346E+003	1.017750E+004	1.681582E+003	0.000000E+000	-6.687689E+003	2.147879E+003	3.763458E+003	8.085844E+003	2.700939E+002	3.717263E+003	2.922723E+003	7.534751E+003	-3.387346E+003	-1.170082E+003	-6.564660E+003	3.227280E+003	3.164790E+003	0.000000E+000	0.000000E+000	
-1.247633E+003	2.442744E+002	-3.069457E+003	-6.494594E+003	-1.119982E+004	1.908992E+003	9.308080E+003	-9.693498E+003	8.398714E+001	5.908836E+003	1.889389E+002	-1.370846E+003	0.000000E+000	-4.123038E+003	-2.770435E+003	-6.621338E+003	1.017425E+004	1.696422E+003	0.000000E+000	-6.686972E+003	2.144697E+003	3.762281E+003	8.089173E+003	2.786453E+002	3.720279E+003	2.920700E+003	7.536774E+003	-3.380781E+003	-1.167544E+003	-6.553957E+003	3.234396E+003	3.179466E+003	0.000000E+000	0.000000E+000	
-1.257619E+003	2.344541E+002	-3.076279E+003	-6.496856E+003	-1.120810E+004	1.897204E+003	9.304182E+003	-9.694639E+003	8.212974E+001	5.899108E+003	1.821162E+002	-1.374266E+003	0.000000E+000	-4.118643E+003	-2.775419E+003	-6.632041E+003	1.017098E+004	1.705893E+003	0.000000E+000	-6.683643E+003	2.138555E+003	3.759266E+003	8.092171E+003	2.911321E+002	3.721217E+003	2.920718E+003	7.542420E+003	-3.364598E+003	-1.162597E+003	-6.538693E+003	3.247141E+003	3.194858E+003	0.000000E+000	0.000000E+000	
-1.266924E+003	2.234753E+002	-3.081907E+003	-6.499872E+003	-1.121419E+004	1.884791E+003	9.298977E+003	-9.695006E+003	7.793682E+001	5.888313E+003	1.735832E+002	-1.376492E+003	0.000000E+000	-4.114229E+003	-2.778306E+003	-6.643682E+003	1.016934E+004	1.722610E+003	0.000000E+000	-6.680664E+003	2.135888E+003	3.757316E+003	8.095333E+003	3.029753E+002	3.723552E+003	2.918806E+003	7.546098E+003	-3.350088E+003	-1.158993E+003	-6.522804E+003	3.262184E+003	3.202490E+003	0.000000E+000	0.000000E+000	
-1.272606E+003	2.183077E+002	-3.084720E+003	-6.502300E+003	-1.121768E+004	1.876865E+003	9.296734E+003	-9.695760E+003	7.775292E+001	5.883899E+003	1.716707E+002	-1.379599E+003	0.000000E+000	-4.110036E+003	-2.781524E+003	-6.651755E+003	1.016809E+004	1.737929E+003	0.000000E+000	-6.679395E+003	2.134803E+003	3.757390E+003	8.098496E+003	3.095589E+002	3.725980E+003	2.919817E+003	7.549077E+003	-3.341169E+003	-1.153991E+003	-6.511734E+003	3.270165E+003	3.185976E+003	0.000000E+000	0.000000E+000	
-1.270087E+003	2.205697E+002	-3.081870E+003	-6.499192E+003	-1.121465E+004	1.879697E+003	9.300081E+003	-9.692965E+003	7.972065E+001	5.886474E+003	1.745579E+002	-1.377577E+003	0.000000E+000	-4.107351E+003	-2.778931E+003	-6.655065E+003	1.016974E+004	1.741809E+003	0.000000E+000	-6.678310E+003	2.135943E+003	3.762355E+003	8.100593E+003	3.077567E+002	3.729088E+003	2.922061E+003	7.550842E+003	-3.340783E+003	-1.152042E+003	-6.510925E+003	3.270790E+003	3.127790E+003	0.000000E+000	0.000000E+000	
-1.260984E+003	2.303715E+002	-3.075323E+003	-6.493344E+003	-1.120560E+004	1.892092E+003	9.307859E+003	-9.689728E+003	8.464917E+001	5.895540E+003	1.825392E+002	-1.373604E+003	0.000000E+000	-4.105549E+003	-2.773562E+003	-6.650670E+003	1.017488E+004	1.752107E+003	0.000000E+000	-6.678016E+003	2.142435E+003	3.759983E+003	8.101531E+003	3.009707E+002	3.730688E+003	2.925996E+003	7.550585E+003	-3.344976E+003	-1.153752E+003	-6.513260E+003	3.264501E+003	3.021698E+003	0.000000E+000	0.000000E+000	
-1.247283E+003	2.450835E+002	-3.064988E+003	-6.488158E+003	-1.119442E+004	1.907393E+003	9.317184E+003	-9.684910E+003	9.167416E+001	5.909700E+003	1.932053E+002	-1.368768E+003	0.000000E+000	-4.105788E+003	-2.765819E+003	-6.644013E+003	1.018389E+004	1.768070E+003	0.000000E+000	-6.676122E+003	2.151961E+003	3.762631E+003	8.101494E+003	2.887782E+002	3.733097E+003	2.931495E+003	7.550088E+003	-3.352810E+003	-1.153531E+003	-6.520763E+003	3.254570E+003	2.877171E+003	0.000000E+000	0.000000E+000	
-1.231744E+003	2.595381E+002	-3.054432E+003	-6.481280E+003	-1.118175E+004	1.927162E+003	9.326747E+003	-9.679448E+003	9.790836E+001	5.922555E+003	2.069979E+002	-1.364538E+003	0.000000E+000	-4.105402E+003	-2.758371E+003	-6.633034E+003	1.018957E+004	1.777265E+003	0.000000E+000	-6.673382E+003	2.160071E+003	3.774566E+003	8.101200E+003	2.746547E+002	3.735230E+003	2.938244E+003	7.548764E+003	-3.363844E+003	-1.153881E+003	-6.528634E+003	3.242451E+003	2.727219E+003	0.000000E+000	0.000000E+000	
-1.222953E+003	2.702043E+002	-3.045623E+003	-6.475524E+003	-1.117347E+004	1.939980E+003	9.334893E+003	-9.674740E+003	1.024691E+002	5.932173E+003	2.174618E+002	-1.359610E+003	0.000000E+000	-4.104630E+003	-2.752045E+003	-6.626432E+003	1.019510E+004	1.784088E+003	0.000000E+000	-6.672499E+003	2.168291E+003	3.781977E+003	8.102966E+003	2.655700E+002	3.739735E+003	2.942750E+003	7.549720E+003	-3.369931E+003	-1.153862E+003	-6.530363E+003	3.236217E+003	2.598581E+003	0.000000E+000	0.000000E+000	
-1.219073E+003	2.739926E+002	-3.041559E+003	-6.469933E+003	-1.116847E+004	1.942756E+003	9.340355E+003	-9.671449E+003	1.071401E+002	5.936660E+003	2.201283E+002	-1.356686E+003	0.000000E+000	-4.100345E+003	-2.748422E+003	-6.625586E+003	1.020101E+004	1.782672E+003	0.000000E+000	-6.668582E+003	2.173128E+003	3.786244E+003	8.108262E+003	2.647057E+002	3.743726E+003	2.946906E+003	7.553380E+003	-3.370372E+003	-1.150644E+003	-6.522878E+003	3.240152E+003	2.493151E+003	0.000000E+000	0.000000E+000	
-1.221868E+003	2.703882E+002	-3.041908E+003	-6.468535E+003	-1.116803E+004	1.939373E+003	9.339178E+003	-9.668451E+003	1.095308E+002	5.935133E+003	2.183629E+002	-1.354276E+003	0.000000E+000	-4.092713E+003	-2.747061E+003	-6.629889E+003	1.020099E+004	1.786368E+003	0.000000E+000	-6.664297E+003	2.174434E+003	3.789131E+003	8.112106E+003	2.705537E+002	3.749960E+003	2.948524E+003	7.560387E+003	-3.358492E+003	-1.144355E+003	-6.508166E+003	3.250764E+003	2.412989E+003	0.000000E+000	0.000000E+000	
-1.228912E+003	2.622414E+002	-3.045237E+003	-6.467947E+003	-1.117273E+004	1.929295E+003	9.336603E+003	-9.666354E+003	1.128043E+002	5.928569E+003	2.148320E+002	-1.352842E+003	0.000000E+000	-4.085743E+003	-2.746749E+003	-6.636730E+003	1.020029E+004	1.794294E+003	0.000000E+000	-6.657621E+003	2.175427E+003	3.787605E+003	8.118468E+003	2.792154E+002	3.754006E+003	2.951669E+003	7.567467E+003	-3.339477E+003	-1.138028E+003	-6.486502E+003	3.267112E+003	2.345497E+003	0.000000E+000	0.000000E+000	
-1.236617E+003	2.531384E+002	-3.048235E+003	-6.466752E+003	-1.117772E+004	1.918132E+003	9.334599E+003	-9.663247E+003	1.116641E+002	5.922629E+003	2.081012E+002	-1.350212E+003	0.000000E+000	-4.077744E+003	-2.746418E+003	-6.644675E+003	1.020255E+004	1.801411E+003	0.000000E+000	-6.653447E+003	2.173220E+003	3.785214E+003	8.126762E+003	2.859461E+002	3.760424E+003	2.953508E+003	7.577471E+003	-3.322540E+003	-1.129330E+003	-6.462779E+003	3.286109E+003	2.279018E+003	0.000000E+000	0.000000E+000	
-1.240902E+003	2.488719E+002	-3.050202E+003	-6.463864E+003	-1.117825E+004	1.913847E+003	9.333882E+003	-9.662658E+003	1.148823E+002	5.919097E+003	2.056738E+002	-1.348410E+003	0.000000E+000	-4.070903E+003	-2.746032E+003	-6.647893E+003	1.020373E+004	1.800933E+003	0.000000E+000	-6.647654E+003	2.174084E+003	3.785287E+003	8.133401E+003	2.856703E+002	3.765868E+003	2.956579E+003	7.584073E+003	-3.310439E+003	-1.122139E+003	-6.444316E+003	3.297934E+003	2.210073E+003	0.000000E+000	0.000000E+000	
-1.238401E+003	2.509867E+002	-3.048014E+003	-6.463625E+003	-1.117647E+004	1.914509E+003	9.336640E+003	-9.660433E+003	1.173650E+002	5.920054E+003	2.065565E+002	-1.346314E+003	0.000000E+000	-4.067831E+003	-2.744671E+003	-6.645264E+003	1.020555E+004	1.801999E+003	0.000000E+000	-6.644620E+003	2.176751E+003	3.790381E+003	8.135957E+003	2.773028E+002	3.769527E+003	2.959172E+003	7.586979E+003	-3.307901E+003	-1.120631E+003	-6.431884E+003	3.301704E+003	2.144752E+003	0.000000E+000	0.000000E+000	
-1.231063E+003	2.593542E+002	-3.041945E+003	-6.460131E+003	-1.116917E+004	1.921939E+003	9.341274E+003	-9.657582E+003	1.194431E+002	5.928771E+003	2.123493E+002	-1.343261E+003	0.000000E+000	-4.066857E+003	-2.740827E+003	-6.637393E+003	1.020871E+004	1.801926E+003	0.000000E+000	-6.642744E+003	2.182360E+003	3.793673E+003	8.136803E+003	2.551429E+002	3.770152E+003	2.962280E+003	7.586206E+003	-3.310071E+003	-1.122801E+003	-6.425282E+003	3.296922E+003	2.072130E+003	0.000000E+000	0.000000E+000	
-1.219643E+003	2.713629E+002	-3.034074E+003	-6.453989E+003	-1.115984E+004	1.938527E+003	9.349422E+003	-9.653867E+003	1.230843E+002	5.939492E+003	2.210478E+002	-1.340006E+003	0.000000E+000	-4.067997E+003	-2.734152E+003	-6.625972E+003	1.021405E+004	1.798009E+003	0.000000E+000	-6.643222E+003	2.188465E+003	3.796524E+003	8.133898E+003	2.229420E+002	3.771605E+003	2.965608E+003	7.583907E+003	-3.319101E+003	-1.125174E+003	-6.422303E+003	3.285944E+003	1.995646E+003	0.000000E+000	0.000000E+000	
-1.207653E+003	2.856151E+002	-3.025081E+003	-6.449612E+003	-1.114886E+004	1.953790E+003	9.358983E+003	-9.651256E+003	1.288955E+002	5.952255E+003	2.315669E+002	-1.336070E+003	0.000000E+000	-4.070645E+003	-2.728874E+003	-6.613872E+003	1.021947E+004	1.801190E+003	0.000000E+000	-6.646220E+003	2.196079E+003	3.801985E+003	8.130513E+003	1.867505E+002	3.770520E+003	2.969397E+003	7.580616E+003	-3.333923E+003	-1.128061E+003	-6.421678E+003	3.272427E+003	1.921994E+003	0.000000E+000	0.000000E+000	
-1.198421E+003	2.947549E+002	-3.018572E+003	-6.446321E+003	-1.114053E+004	1.965909E+003	9.365531E+003	-9.648884E+003	1.314517E+002	5.960420E+003	2.387390E+002	-1.333385E+003	0.000000E+000	-4.072135E+003	-2.723688E+003	-6.603279E+003	1.022388E+004	1.808307E+003	0.000000E+000	-6.647176E+003	2.201669E+003	3.807687E+003	8.127148E+003	1.529680E+002	3.771808E+003	2.971750E+003	7.577876E+003	-3.344902E+003	-1.132419E+003	-6.411729E+003	3.262515E+003	1.859413E+003	0.000000E+000	0.000000E+000	
-1.195957E+003	2.968146E+002	-3.016402E+003	-6.444849E+003	-1.113467E+004	1.968668E+003	9.367995E+003	-9.646825E+003	1.332356E+002	5.962112E+003	2.416998E+002	-1.332153E+003	0.000000E+000	-4.070204E+003	-2.721757E+003	-6.601477E+003	1.022569E+004	1.818238E+003	0.000000E+000	-6.646054E+003	2.204814E+003	3.808496E+003	8.129373E+003	1.253462E+002	3.772690E+003	2.972854E+003	7.577490E+003	-3.344203E+003	-1.131316E+003	-6.390065E+003	3.262533E+003	1.808289E+003	0.000000E+000	0.000000E+000	
-1.199083E+003	2.933389E+002	-3.017726E+003	-6.444151E+003	-1.113761E+004	1.963408E+003	9.366248E+003	-9.646585E+003	1.326839E+002	5.960733E+003	2.366793E+002	-1.331271E+003	0.000000E+000	-4.066930E+003	-2.721647E+003	-6.604824E+003	1.022578E+004	1.828518E+003	0.000000E+000	-6.643333E+003	2.204556E+003	3.808643E+003	8.132610E+003	1.093286E+002	3.775007E+003	2.974012E+003	7.581480E+003	-3.334696E+003	-1.128944E+003	-6.356246E+003	3.271820E+003	1.768235E+003	0.000000E+000	0.000000E+000	
-1.209032E+003	2.836841E+002	-3.023390E+003	-6.445015E+003	-1.114552E+004	1.949873E+003	9.359811E+003	-9.648461E+003	1.309552E+002	5.952016E+003	2.292130E+002	-1.332631E+003	0.000000E+000	-4.063841E+003	-2.724644E+003	-6.609771E+003	1.022147E+004	1.840563E+003	0.000000E+000	-6.641438E+003	2.202129E+003	3.805921E+003	8.139175E+003	1.154524E+002	3.778189E+003	2.973571E+003	7.587880E+003	-3.315349E+003	-1.125284E+003	-6.313949E+003	3.289383E+003	1.739473E+003	0.000000E+000	0.000000E+000	
-1.221666E+003	2.696894E+002	-3.031040E+003	-6.448105E+003	-1.115263E+004	1.936449E+003	9.354736E+003	-9.650852E+003	1.291714E+002	5.940908E+003	2.197789E+002	-1.335206E+003	0.000000E+000	-4.057735E+003	-2.728432E+003	-6.619315E+003	1.021870E+004	1.852131E+003	0.000000E+000	-6.638698E+003	2.196355E+003	3.799650E+003	8.144876E+003	1.168317E+002	3.781701E+003	2.972891E+003	7.593084E+003	-3.292031E+003	-1.119271E+003	-6.263653E+003	3.307111E+003	1.724688E+003	0.000000E+000	0.000000E+000	
-1.227845E+003	2.627931E+002	-3.035637E+003	-6.450863E+003	-1.115710E+004	1.926610E+003	9.351315E+003	-9.651201E+003	1.289875E+002	5.933626E+003	2.133976E+002	-1.335298E+003	0.000000E+000	-4.051023E+003	-2.730272E+003	-6.625586E+003	1.021827E+004	1.861896E+003	0.000000E+000	-6.634413E+003	2.194497E+003	3.797517E+003	8.150890E+003	7.100379E+001	3.784570E+003	2.972891E+003	7.599171E+003	-3.270496E+003	-1.114489E+003	-6.216721E+003	3.319689E+003	1.713948E+003	0.000000E+000	0.000000E+000	
-1.228434E+003	2.608989E+002	-3.034442E+003	-6.450532E+003	-1.115771E+004	1.924183E+003	9.351739E+003	-9.649233E+003	1.299070E+002	5.931180E+003	2.131953E+002	-1.332962E+003	0.000000E+000	-4.050398E+003	-2.730474E+003	-6.623986E+003	1.021925E+004	1.868240E+003	0.000000E+000	-6.632832E+003	2.195729E+003	3.800643E+003	8.155248E+003	2.353920E+000	3.786906E+003	2.975300E+003	7.603070E+003	-3.258653E+003	-1.113423E+003	-6.176557E+003	3.321197E+003	1.700707E+003	0.000000E+000	0.000000E+000	
-1.224388E+003	2.659010E+002	-3.030838E+003	-6.447921E+003	-1.115361E+004	1.929608E+003	9.355288E+003	-9.648148E+003	1.327390E+002	5.937653E+003	2.161377E+002	-1.331381E+003	0.000000E+000	-4.049736E+003	-2.728065E+003	-6.621117E+003	1.022287E+004	1.870429E+003	0.000000E+000	-6.634229E+003	2.198800E+003	3.807245E+003	8.154347E+003	-7.021302E+001	3.788322E+003	2.976127E+003	7.601911E+003	-3.252952E+003	-1.114195E+003	-6.145203E+003	3.308472E+003	1.686565E+003	0.000000E+000	0.000000E+000	
-1.214733E+003	2.761810E+002	-3.023776E+003	-6.444500E+003	-1.114504E+004	1.942756E+003	9.362864E+003	-9.644783E+003	1.357918E+002	5.944715E+003	2.229788E+002	-1.329781E+003	0.000000E+000	-4.053965E+003	-2.724240E+003	-6.612437E+003	1.022486E+004	1.870410E+003	0.000000E+000	-6.636289E+003	2.202405E+003	3.814307E+003	8.152912E+003	-1.401134E+002	3.788046E+003	2.979015E+003	7.598104E+003	-3.257347E+003	-1.117579E+003	-6.121498E+003	3.281861E+003	1.669407E+003	0.000000E+000	0.000000E+000	
-1.202375E+003	2.913528E+002	-3.015372E+003	-6.439277E+003	-1.113378E+004	1.957873E+003	9.370919E+003	-9.643055E+003	1.400215E+002	5.958268E+003	2.339392E+002	-1.329946E+003	0.000000E+000	-4.057092E+003	-2.718336E+003	-6.602121E+003	1.022975E+004	1.868295E+003	0.000000E+000	-6.639710E+003	2.207297E+003	3.819952E+003	8.148959E+003	-2.036325E+002	3.787844E+003	2.982821E+003	7.592863E+003	-3.273659E+003	-1.123280E+003	-6.109967E+003	3.242985E+003	1.658944E+003	0.000000E+000	0.000000E+000	
-1.191304E+003	3.026075E+002	-3.006692E+003	-6.434330E+003	-1.112521E+004	1.971647E+003	9.378771E+003	-9.640332E+003	1.447845E+002	5.969229E+003	2.422515E+002	-1.325698E+003	0.000000E+000	-4.059684E+003	-2.712157E+003	-6.594838E+003	1.023461E+004	1.868387E+003	0.000000E+000	-6.641494E+003	2.213954E+003	3.828357E+003	8.144508E+003	-2.508764E+002	3.787825E+003	2.984715E+003	7.588818E+003	-3.296665E+003	-1.126498E+003	-6.103880E+003	3.200430E+003	1.649289E+003	0.000000E+000	0.000000E+000	
-1.185879E+003	3.112692E+002	-3.001064E+003	-6.431093E+003	-1.111832E+004	1.979555E+003	9.384417E+003	-9.635900E+003	1.488671E+002	5.974415E+003	2.480443E+002	-1.322259E+003	0.000000E+000	-4.056926E+003	-2.706916E+003	-6.592833E+003	1.023738E+004	1.872691E+003	0.000000E+000	-6.639949E+003	2.217871E+003	3.837147E+003	8.145097E+003	-2.856335E+002	3.791099E+003	2.988191E+003	7.590234E+003	-3.328609E+003	-1.125836E+003	-6.098492E+003	3.157563E+003	1.645979E+003	0.000000E+000	0.000000E+000	
-1.183967E+003	3.138437E+002	-2.998067E+003	-6.425724E+003	-1.111499E+004	1.978930E+003	9.388923E+003	-9.631322E+003	1.535749E+002	5.976585E+003	2.491661E+002	-1.316724E+003	0.000000E+000	-4.049294E+003	-2.702337E+003	-6.592668E+003	1.024200E+004	1.881352E+003	0.000000E+000	-6.635811E+003	2.221255E+003	3.842204E+003	8.153005E+003	-3.060280E+002	3.797848E+003	2.993671E+003	7.597737E+003	-3.379365E+003	-1.118976E+003	-6.097076E+003	3.114457E+003	1.648185E+003	0.000000E+000	0.000000E+000	
-1.186173E+003	3.135127E+002	-2.996062E+003	-6.420593E+003	-1.111425E+004	1.976337E+003	9.393594E+003	-9.624609E+003	1.593126E+002	5.975353E+003	2.507661E+002	-1.309000E+003	0.000000E+000	-4.039033E+003	-2.697942E+003	-6.594544E+003	1.024873E+004	1.894630E+003	0.000000E+000	-6.625660E+003	2.225687E+003	3.848199E+003	8.165345E+003	-3.087865E+002	3.807337E+003	3.000770E+003	7.609984E+003	-3.468759E+003	-1.107814E+003	-6.094869E+003	3.068794E+003	1.650172E+003	0.000000E+000	0.000000E+000	
