Fp1 Fpz Fp2 F7 F3 Fz F4 F8 FC5 FC1 FC2 FC6 M1 T7 C3 Cz C4 T8 M2 CP5 CP1 CP2 CP6 P7 P3 Pz P4 P8 POz O1 Oz O2 HEOG VEOG MKR+
-1470.703 40.723 3087.305 -322.461 1337.402 1679.688 2744.629 2888.770 -122.754 -723.438 -26.660 -1548.047 0.000 2104.395 -2949.414 -566.016 -2779.395 1684.082 0.000 -498.828 1948.535 -2800.977 1559.082 2534.766 -2863.281 2738.379 986.816 -647.852 -1350.684 1181.250 -2510.938 1065.918 0.000 0.000 -50.000
-1479.785 31.934 3075.977 -337.598 1327.051 1672.949 2733.105 2875.781 -136.133 -732.617 -38.184 -1562.500 0.000 2084.961 -2962.500 -576.270 -2791.992 1669.336 0.000 -514.160 1937.793 -2811.426 1543.066 2535.938 -2878.418 2725.488 970.020 -645.313 -1366.797 1167.578 -2178.418 1061.719 0.000 0.000 -50.000
-1478.125 32.422 3072.559 -344.434 1324.512 1674.609 2728.125 2866.504 -143.066 -732.227 -41.406 -1572.656 0.000 2072.754 -2969.629 -579.395 -2800.781 1656.055 0.000 -527.734 1930.664 -2818.555 1526.660 2519.141 -2889.258 2716.211 955.566 -678.320 -1380.469 1152.539 -1934.473 1062.500 0.000 0.000 -50.000
-1468.457 44.824 3079.785 -341.699 1333.594 1688.770 2734.180 2869.434 -141.406 -720.410 -33.496 -1570.801 0.000 2068.359 -2965.527 -569.434 -2800.879 1650.879 0.000 -533.984 1931.641 -2817.578 1517.578 2478.223 -2894.531 2713.574 945.313 -692.871 -1389.648 1132.129 -1881.836 1034.668 0.000 0.000 -50.000
-1461.914 52.441 3085.352 -339.551 1339.941 1698.145 2737.891 2870.313 -138.477 -712.891 -31.250 -1570.996 0.000 2064.844 -2962.695 -562.598 -2798.828 1650.977 0.000 -536.621 1934.180 -2813.477 1514.746 2480.176 -2896.875 2713.672 941.016 -686.133 -1393.359 1116.699 -1905.859 1011.719 0.000 0.000 -50.000
-1460.840 54.199 3087.207 -339.258 1339.746 1697.949 2737.988 2869.727 -139.551 -712.207 -30.664 -1570.215 0.000 2064.844 -2962.012 -562.695 -2794.434 1655.371 0.000 -532.910 1937.012 -2809.570 1517.871 2492.480 -2893.652 2716.113 944.336 -703.613 -1392.285 1114.746 -1922.266 996.875 0.000 0.000 -50.000
-1463.574 49.414 3084.570 -339.844 1337.988 1693.457 2737.598 2870.801 -137.988 -715.039 -33.105 -1569.141 0.000 2068.945 -2962.500 -564.844 -2794.434 1663.672 0.000 -528.516 1937.891 -2807.715 1524.805 2514.160 -2888.770 2718.457 950.879 -735.547 -1384.180 1124.902 -1933.203 980.762 0.000 0.000 -50.000
-1470.605 42.383 3081.641 -336.816 1335.840 1685.449 2735.059 2875.195 -136.914 -721.484 -37.109 -1564.648 0.000 2077.051 -2961.621 -569.922 -2794.238 1672.070 0.000 -522.266 1938.477 -2809.375 1532.715 2523.145 -2883.594 2723.340 960.547 -789.746 -1375.977 1144.043 -1936.816 984.375 0.000 0.000 -50.000
-1477.734 34.668 3079.980 -336.914 1330.859 1674.805 2731.348 2878.418 -134.375 -729.004 -44.824 -1562.598 0.000 2084.473 -2964.160 -575.684 -2796.973 1677.441 0.000 -517.285 1933.984 -2813.281 1537.109 2513.184 -2880.859 2722.754 966.699 -807.715 -1370.410 1166.797 -1914.160 993.848 0.000 0.000 -50.000
-1483.984 28.418 3074.414 -338.574 1325.977 1666.016 2727.637 2876.367 -135.938 -736.328 -52.930 -1565.137 0.000 2087.891 -2967.090 -581.250 -2800.098 1679.492 0.000 -516.797 1930.078 -2818.262 1538.086 2504.492 -2880.664 2719.629 969.141 -764.941 -1367.578 1187.793 -1902.441 996.973 0.000 0.000 -50.000
-1489.551 20.703 3068.066 -344.629 1319.727 1657.910 2721.875 2870.801 -142.090 -742.676 -60.254 -1570.996 0.000 2082.910 -2971.582 -587.402 -2803.516 1680.957 0.000 -520.117 1926.563 -2818.848 1535.547 2537.500 -2885.449 2714.648 964.453 -708.008 -1371.680 1191.113 -1887.988 1012.207 0.000 0.000 -50.000
-1491.602 18.262 3065.625 -349.219 1317.383 1659.277 2717.090 2864.648 -146.875 -743.262 -61.230 -1575.586 0.000 2073.926 -2975.879 -589.746 -2804.590 1680.566 0.000 -524.316 1924.707 -2819.824 1530.566 2565.332 -2889.160 2712.012 958.789 -668.457 -1377.344 1189.258 -1875.879 1015.723 0.000 0.000 -50.000
-1484.961 24.805 3068.164 -349.316 1320.801 1666.602 2717.480 2863.672 -148.145 -737.402 -59.668 -1578.516 0.000 2067.188 -2976.074 -584.863 -2807.227 1674.219 0.000 -530.957 1924.316 -2819.922 1521.875 2591.602 -2894.727 2708.691 950.586 -671.094 -1385.645 1177.051 -1865.332 1017.285 0.000 0.000 -50.000
-1475.000 38.965 3077.148 -347.461 1330.859 1681.836 2722.168 2867.285 -145.313 -726.660 -52.930 -1577.930 0.000 2063.379 -2971.484 -573.730 -2807.129 1672.168 0.000 -537.305 1926.270 -2818.457 1512.891 2585.352 -2897.461 2708.203 943.457 -704.004 -1392.480 1159.375 -1866.797 1005.371 0.000 0.000 -50.000
-1465.039 49.023 3083.887 -342.188 1339.063 1693.945 2728.223 2868.945 -140.820 -716.895 -45.801 -1575.684 0.000 2061.816 -2966.992 -567.285 -2804.395 1672.266 0.000 -540.527 1929.883 -2815.234 1509.668 2563.184 -2899.707 2708.594 938.379 -717.480 -1397.852 1142.480 -1876.563 983.594 0.000 0.000 -50.000
-1464.063 51.074 3086.523 -341.016 1341.211 1697.168 2729.785 2869.727 -139.648 -715.332 -45.410 -1575.000 0.000 2061.719 -2966.504 -564.941 -2803.223 1677.832 0.000 -538.770 1931.543 -2812.891 1511.719 2532.422 -2898.828 2708.887 936.914 -687.500 -1397.461 1136.426 -1892.383 970.703 0.000 0.000 -50.000
-1468.555 45.313 3083.496 -344.336 1335.156 1689.844 2725.586 2868.359 -143.066 -718.750 -52.051 -1576.172 0.000 2062.207 -2968.750 -569.141 -2801.074 1686.523 0.000 -535.156 1933.203 -2810.840 1514.453 2539.844 -2897.559 2710.352 940.820 -664.941 -1395.313 1141.602 -1892.090 961.328 0.000 0.000 -50.000
-1478.125 35.449 3078.027 -345.996 1329.297 1678.320 2720.410 2867.285 -144.922 -728.711 -57.520 -1577.148 0.000 2065.527 -2969.922 -577.051 -2803.516 1697.754 0.000 -529.883 1930.078 -2812.305 1520.703 2564.844 -2892.480 2710.742 946.875 -683.203 -1387.891 1158.105 -1882.520 968.359 0.000 0.000 -50.000
-1486.426 25.293 3070.996 -345.703 1322.656 1666.992 2717.188 2867.090 -144.922 -736.719 -65.820 -1575.488 0.000 2073.242 -2975.293 -584.082 -2806.738 1706.250 0.000 -527.246 1924.512 -2818.359 1525.195 2565.039 -2890.430 2710.156 954.102 -681.445 -1381.543 1177.539 -1866.016 980.566 0.000 0.000 -50.000
-1495.996 13.770 3065.527 -350.684 1316.504 1655.762 2709.277 2866.211 -148.340 -747.656 -73.633 -1578.125 0.000 2075.098 -2979.883 -590.723 -2815.039 1711.328 0.000 -528.809 1916.406 -2826.953 1525.098 2570.703 -2892.871 2705.664 954.688 -622.559 -1381.348 1192.871 -1847.949 1001.758 0.000 0.000 -50.000
-1502.051 8.496 3058.984 -356.934 1309.082 1646.680 2703.613 2861.719 -154.297 -753.809 -81.055 -1584.082 0.000 2071.387 -2987.012 -597.754 -2819.824 1713.965 0.000 -533.496 1911.230 -2831.641 1521.582 2583.301 -2897.949 2699.609 950.195 -546.875 -1387.012 1197.754 -1821.875 1017.871 0.000 0.000 -50.000
-1507.031 7.129 3055.859 -360.059 1306.445 1646.484 2700.977 2857.031 -158.203 -758.105 -84.961 -1588.086 0.000 2063.184 -2989.844 -597.559 -2821.484 1718.555 0.000 -535.645 1909.473 -2832.031 1517.578 2588.379 -2903.125 2696.777 944.238 -504.883 -1390.137 1195.215 -1807.715 1031.641 0.000 0.000 -50.000
-1502.051 10.352 3058.301 -362.695 1309.277 1653.027 2700.781 2853.418 -160.742 -751.855 -84.375 -1591.797 0.000 2055.078 -2991.797 -595.605 -2821.289 1722.656 0.000 -540.723 1913.184 -2830.273 1512.305 2596.973 -2905.469 2694.531 938.672 -500.293 -1398.926 1183.301 -1798.438 1034.668 0.000 0.000 -50.000
-1492.188 21.973 3064.063 -360.938 1315.625 1665.137 2704.980 2853.418 -159.863 -741.895 -77.148 -1593.945 0.000 2047.949 -2989.941 -590.039 -2821.191 1723.730 0.000 -549.023 1913.379 -2829.297 1501.660 2602.441 -2909.277 2692.676 929.785 -506.543 -1407.324 1160.645 -1802.441 1033.789 0.000 0.000 -50.000
-1483.203 33.203 3070.996 -357.910 1323.340 1676.660 2710.254 2855.469 -156.641 -731.348 -69.531 -1591.699 0.000 2044.238 -2985.547 -580.664 -2821.582 1729.785 0.000 -554.102 1913.867 -2828.027 1494.629 2571.289 -2912.891 2691.797 921.875 -486.719 -1414.063 1136.719 -1821.289 1021.484 0.000 0.000 -50.000
-1479.004 36.719 3073.535 -356.738 1328.320 1683.887 2712.402 2856.934 -154.297 -726.758 -68.457 -1591.113 0.000 2043.750 -2982.031 -576.074 -2820.801 1741.211 0.000 -553.516 1915.527 -2826.758 1492.871 2538.379 -2913.965 2692.480 919.922 -455.273 -1415.137 1120.020 -1844.043 1008.496 0.000 0.000 -50.000
-1484.277 33.203 3070.898 -359.180 1323.730 1678.320 2708.887 2854.688 -155.762 -732.422 -73.438 -1592.285 0.000 2042.188 -2985.645 -579.785 -2820.410 1753.711 0.000 -552.539 1915.625 -2827.637 1497.461 2539.551 -2913.672 2692.090 922.559 -413.184 -1412.891 1118.066 -1852.441 1004.785 0.000 0.000 -50.000
-1492.676 23.145 3064.551 -361.133 1316.699 1666.113 2703.613 2852.637 -159.180 -741.016 -80.762 -1592.969 0.000 2045.313 -2989.844 -588.086 -2820.215 1765.723 0.000 -549.023 1913.574 -2830.176 1500.684 2568.652 -2910.938 2691.602 927.148 -402.051 -1408.691 1126.367 -1851.563 1012.891 0.000 0.000 -50.000
-1501.465 12.793 3059.473 -362.500 1309.570 1653.906 2698.730 2854.590 -159.766 -750.781 -88.574 -1593.848 0.000 2050.977 -2992.676 -596.777 -2822.363 1781.152 0.000 -543.066 1911.230 -2833.203 1508.203 2587.793 -2905.664 2692.188 936.328 -428.223 -1401.758 1143.457 -1845.801 1026.855 0.000 0.000 -50.000
-1510.059 3.809 3054.004 -363.281 1303.516 1643.359 2692.480 2853.418 -163.477 -758.301 -95.801 -1593.750 0.000 2056.055 -2995.801 -605.176 -2827.539 1792.188 0.000 -542.773 1905.664 -2837.500 1509.863 2580.078 -2905.371 2690.723 941.016 -416.016 -1397.559 1162.305 -1822.070 1046.094 0.000 0.000 -50.000
-1515.430 -2.051 3051.074 -366.406 1299.219 1637.109 2690.527 2852.441 -164.258 -764.355 -100.879 -1596.582 0.000 2055.566 -2999.512 -608.301 -2832.520 1801.953 0.000 -544.434 1899.609 -2843.066 1508.691 2559.277 -2908.789 2686.133 938.867 -371.875 -1398.438 1169.434 -1801.367 1068.750 0.000 0.000 -50.000
-1518.457 -3.711 3047.754 -370.508 1295.703 1633.691 2685.938 2847.656 -169.141 -767.383 -104.199 -1600.391 0.000 2049.902 -3003.418 -613.184 -2835.254 1812.109 0.000 -548.438 1896.973 -2844.727 1504.883 2566.113 -2913.965 2682.129 932.715 -312.402 -1404.980 1165.918 -1790.332 1079.688 0.000 0.000 -50.000
-1516.797 -2.344 3045.703 -373.535 1295.898 1635.645 2684.570 2842.871 -172.852 -766.113 -105.762 -1607.813 0.000 2040.332 -3006.934 -612.598 -2836.230 1824.707 0.000 -553.711 1898.828 -2843.262 1498.145 2587.891 -2918.945 2679.980 923.828 -284.668 -1411.523 1150.879 -1782.715 1086.621 0.000 0.000 -50.000
-1510.547 5.469 3050.195 -375.879 1300.977 1645.117 2686.914 2841.992 -173.438 -758.887 -102.637 -1609.180 0.000 2032.031 -3006.934 -606.348 -2835.938 1832.813 0.000 -559.961 1900.391 -2842.578 1489.453 2613.379 -2923.340 2678.320 916.016 -314.258 -1419.922 1132.422 -1777.930 1092.578 0.000 0.000 -50.000
-1500.195 18.066 3058.887 -370.703 1309.863 1659.961 2693.262 2845.215 -169.531 -745.898 -93.555 -1606.250 0.000 2028.906 -3001.563 -597.656 -2833.984 1840.234 0.000 -563.379 1904.395 -2838.867 1484.473 2613.184 -2924.219 2679.395 911.035 -370.410 -1424.902 1108.594 -1790.527 1076.660 0.000 0.000 -50.000
-1491.016 27.734 3065.820 -364.453 1318.652 1671.875 2701.074 2849.219 -163.867 -736.816 -86.523 -1603.027 0.000 2029.883 -2995.410 -588.867 -2832.813 1849.805 0.000 -564.551 1906.152 -2835.254 1483.301 2590.039 -2923.535 2681.250 909.473 -420.313 -1425.488 1091.504 -1807.129 1063.574 0.000 0.000 -50.000
-1490.430 27.832 3067.773 -363.379 1318.848 1671.289 2700.488 2851.855 -162.598 -735.645 -85.547 -1600.293 0.000 2032.129 -2993.750 -589.160 -2830.176 1856.934 0.000 -562.988 1907.324 -2833.691 1485.449 2570.508 -2923.633 2681.445 912.207 -422.266 -1423.047 1087.207 -1816.211 1061.719 0.000 0.000 -50.000
-1496.973 19.824 3061.621 -366.211 1313.574 1662.500 2696.777 2850.293 -163.379 -744.238 -91.406 -1602.539 0.000 2035.254 -2997.266 -595.508 -2829.980 1864.160 0.000 -556.934 1908.301 -2832.715 1491.309 2588.965 -2921.094 2682.910 917.969 -416.211 -1418.945 1092.383 -1816.797 1064.453 0.000 0.000 -50.000
-1510.059 6.543 3053.516 -371.094 1303.027 1647.070 2689.453 2847.070 -168.262 -756.348 -101.563 -1604.980 0.000 2037.598 -3003.418 -606.055 -2831.152 1867.285 0.000 -551.660 1904.492 -2835.742 1496.973 2658.984 -2916.992 2681.738 923.047 -416.797 -1412.793 1108.398 -1811.621 1073.340 0.000 0.000 -50.000
-1519.629 -4.688 3046.777 -372.559 1295.410 1633.594 2683.691 2845.898 -171.191 -767.480 -110.547 -1605.762 0.000 2040.234 -3007.715 -616.309 -2836.133 1863.184 0.000 -551.367 1898.242 -2840.527 1500.391 2713.086 -2915.234 2681.250 929.980 -448.828 -1405.664 1131.445 -1787.793 1098.242 0.000 0.000 -50.000
-1525.879 -11.133 3043.066 -374.512 1289.355 1625.391 2679.395 2844.043 -173.047 -772.852 -115.527 -1606.543 0.000 2042.480 -3010.449 -622.363 -2843.066 1852.148 0.000 -553.320 1893.262 -2848.047 1497.656 2775.391 -2918.164 2677.246 928.809 -447.266 -1408.691 1140.430 -1765.332 1107.520 0.000 0.000 -50.000
-1530.078 -15.332 3037.891 -380.273 1285.547 1620.898 2673.340 2839.160 -176.074 -777.637 -120.703 -1611.426 0.000 2036.426 -3015.723 -626.367 -2846.484 1834.082 0.000 -558.691 1889.453 -2850.781 1493.457 2857.031 -2923.242 2671.680 921.484 -409.082 -1415.039 1135.645 -1752.539 1113.770 0.000 0.000 -50.000
-1528.711 -13.867 3037.012 -382.617 1287.109 1623.730 2672.266 2834.180 -181.836 -777.441 -122.461 -1616.797 0.000 2028.711 -3018.262 -626.758 -2847.559 1814.160 0.000 -562.598 1889.063 -2850.195 1487.988 2920.215 -2927.832 2667.773 915.234 -391.602 -1421.484 1126.563 -1744.336 1110.645 0.000 0.000 -50.000
-1521.973 -7.129 3039.941 -384.082 1291.992 1634.082 2674.121 2834.473 -181.543 -770.898 -117.188 -1619.434 0.000 2021.289 -3017.578 -622.461 -2848.242 1792.285 0.000 -567.285 1891.797 -2847.070 1481.934 2971.582 -2931.836 2666.309 907.324 -411.914 -1428.809 1110.840 -1740.527 1100.098 0.000 0.000 -50.000
-1508.789 6.250 3050.586 -376.563 1302.930 1650.586 2681.836 2838.867 -177.637 -755.859 -106.055 -1615.625 0.000 2019.141 -3011.426 -611.133 -2843.066 1775.879 0.000 -570.117 1897.363 -2841.602 1477.148 2969.922 -2933.008 2670.117 902.539 -475.781 -1430.859 1088.086 -1750.098 1076.465 0.000 0.000 -50.000
-1497.852 19.141 3061.719 -369.531 1313.086 1663.770 2691.113 2844.531 -170.605 -743.945 -95.215 -1610.352 0.000 2022.461 -3003.809 -600.781 -2838.770 1768.945 0.000 -570.313 1901.465 -2837.598 1476.855 2934.277 -2931.055 2674.121 901.758 -536.133 -1430.957 1069.531 -1759.863 1053.906 0.000 0.000 -50.000
-1495.410 21.875 3063.086 -367.383 1314.258 1665.039 2691.016 2847.949 -167.871 -741.602 -92.969 -1607.813 0.000 2024.316 -3001.758 -599.609 -2836.035 1769.434 0.000 -567.383 1904.297 -2833.398 1479.980 2898.438 -2930.371 2675.098 903.027 -513.672 -1431.445 1061.328 -1770.117 1038.086 0.000 0.000 -50.000
-1500.488 17.480 3060.742 -368.652 1312.109 1659.375 2688.770 2848.242 -168.555 -746.680 -97.363 -1608.105 0.000 2027.539 -3002.734 -602.539 -2833.594 1784.863 0.000 -560.059 1908.594 -2829.590 1489.551 2889.551 -2923.828 2678.125 911.621 -541.309 -1423.145 1069.629 -1767.090 1028.223 0.000 0.000 -50.000
-1509.668 9.473 3057.813 -369.141 1307.324 1648.145 2685.059 2849.512 -167.871 -752.148 -104.199 -1606.543 0.000 2033.887 -3004.297 -609.375 -2830.957 1804.688 0.000 -553.711 1907.324 -2830.273 1496.582 2911.816 -2917.676 2681.836 920.703 -606.738 -1413.672 1087.598 -1755.176 1030.371 0.000 0.000 -50.000
-1517.480 -1.758 3053.809 -369.141 1301.563 1637.793 2682.520 2850.488 -167.773 -762.012 -109.961 -1605.762 0.000 2041.504 -3006.250 -616.113 -2838.574 1833.789 0.000 -552.051 1900.195 -2838.574 1499.219 2916.699 -2917.090 2679.297 926.270 -635.352 -1408.887 1107.910 -1731.250 1047.168 0.000 0.000 -50.000
-1524.609 -9.961 3045.898 -371.777 1295.508 1626.367 2676.172 2846.680 -171.289 -770.508 -116.309 -1607.813 0.000 2042.480 -3009.961 -624.902 -2843.262 1866.699 0.000 -553.516 1891.895 -2845.605 1498.242 2928.711 -2918.652 2674.512 926.465 -598.438 -1408.984 1120.898 -1715.039 1050.000 0.000 0.000 -50.000
-1530.469 -15.918 3040.039 -378.125 1288.770 1620.313 2669.824 2841.504 -177.539 -776.660 -123.047 -1614.160 0.000 2036.426 -3016.602 -633.008 -2846.680 1903.125 0.000 -554.492 1889.355 -2849.414 1495.996 2965.039 -2922.852 2669.629 921.875 -568.555 -1414.746 1119.922 -1695.117 1055.566 0.000 0.000 -50.000
-1531.250 -17.285 3038.574 -383.398 1288.086 1620.410 2665.723 2836.621 -181.543 -777.246 -125.391 -1618.359 0.000 2028.516 -3019.336 -634.180 -2849.805 1940.332 0.000 -559.961 1887.305 -2850.000 1489.844 3002.051 -2927.148 2666.992 915.918 -570.801 -1420.508 1111.816 -1682.422 1056.836 0.000 0.000 -50.000
-1521.289 -5.762 3045.605 -378.809 1295.020 1633.398 2671.777 2839.258 -178.516 -767.090 -116.699 -1616.309 0.000 2026.172 -3014.453 -625.781 -2846.680 1974.121 0.000 -562.500 1891.504 -2846.289 1485.449 3012.402 -2928.320 2669.336 912.695 -697.461 -1423.438 1098.047 -1673.730 1048.535 0.000 0.000 -50.000
-1506.152 10.059 3058.008 -371.582 1308.301 1650.879 2682.617 2845.410 -171.875 -751.953 -104.395 -1613.672 0.000 2024.121 -3007.422 -613.965 -2843.066 1999.316 0.000 -566.211 1896.777 -2843.750 1479.102 2980.957 -2929.492 2671.387 905.859 -780.664 -1427.832 1075.684 -1684.668 1028.418 0.000 0.000 -50.000
-1496.973 21.289 3066.309 -365.918 1316.016 1662.207 2689.746 2848.828 -168.262 -740.918 -95.801 -1607.813 0.000 2022.266 -3000.488 -604.590 -2839.648 2019.727 0.000 -566.992 1901.563 -2838.965 1476.270 2939.746 -2930.078 2671.973 901.563 -803.320 -1430.078 1053.125 -1698.828 998.340 0.000 0.000 -50.000
-1497.168 22.461 3065.625 -367.090 1317.285 1665.039 2689.160 2847.949 -167.676 -741.406 -96.387 -1610.449 0.000 2021.289 -3001.367 -603.809 -2836.035 2039.941 0.000 -563.379 1905.566 -2836.328 1478.613 2929.395 -2928.906 2675.195 903.711 -788.086 -1429.785 1044.824 -1712.500 974.902 0.000 0.000 -50.000
-1499.414 18.750 3064.453 -366.406 1315.918 1659.082 2688.281 2847.559 -169.238 -744.531 -99.121 -1608.301 0.000 2023.340 -3001.563 -607.520 -2833.496 2062.793 0.000 -558.398 1907.227 -2835.547 1485.254 2947.852 -2924.902 2677.539 909.375 -821.191 -1423.438 1047.363 -1718.848 957.520 0.000 0.000 -50.000
-1504.883 11.328 3062.012 -365.723 1311.914 1652.246 2686.914 2850.977 -166.504 -749.707 -103.027 -1606.543 0.000 2028.711 -3001.172 -612.012 -2836.230 2086.035 0.000 -553.418 1900.684 -2841.211 1489.355 2961.523 -2921.777 2679.102 916.992 -862.598 -1418.066 1060.840 -1712.598 956.738 0.000 0.000 -50.000
-1511.719 3.223 3057.715 -364.355 1307.910 1641.211 2682.910 2853.125 -163.672 -757.227 -108.398 -1602.832 0.000 2038.477 -3002.441 -618.359 -2838.965 2098.047 0.000 -550.684 1896.973 -2847.656 1495.996 2953.418 -2919.531 2677.832 924.707 -881.836 -1411.133 1079.980 -1700.781 968.262 0.000 0.000 -50.000
-1523.535 -7.324 3049.805 -370.410 1298.926 1627.734 2674.805 2849.219 -169.141 -767.676 -119.922 -1607.617 0.000 2038.379 -3009.473 -628.613 -2844.531 2095.898 0.000 -550.879 1891.211 -2853.516 1497.363 2963.379 -2920.313 2672.754 924.707 -784.863 -1410.742 1091.113 -1688.965 982.617 0.000 0.000 -50.000
-1530.957 -14.648 3044.434 -374.512 1293.848 1620.020 2669.141 2845.508 -175.098 -772.852 -124.023 -1611.426 0.000 2033.398 -3013.867 -635.156 -2845.020 2075.195 0.000 -552.051 1888.281 -2857.715 1498.047 2982.227 -2922.852 2671.680 921.582 -734.570 -1410.742 1094.824 -1662.891 1000.781 0.000 0.000 -50.000
-1527.832 -12.793 3046.094 -374.707 1295.703 1623.828 2670.703 2844.531 -175.098 -770.996 -122.461 -1613.281 0.000 2028.613 -3013.086 -634.180 -2843.848 2031.543 0.000 -552.246 1890.430 -2855.957 1495.605 3004.980 -2923.730 2671.191 920.605 -750.781 -1412.305 1088.379 -1647.168 1018.652 0.000 0.000 -50.000
-1517.773 -2.246 3053.223 -370.215 1303.027 1634.961 2675.586 2846.973 -170.508 -762.402 -116.602 -1610.156 0.000 2026.660 -3008.887 -625.781 -2843.164 1969.727 0.000 -556.348 1893.164 -2854.785 1488.770 2986.328 -2925.293 2671.680 916.113 -751.172 -1417.383 1074.902 -1636.914 1028.809 0.000 0.000 -50.000
-1508.691 8.301 3059.766 -368.555 1311.035 1647.363 2679.688 2846.777 -169.141 -751.367 -110.059 -1611.133 0.000 2020.313 -3006.934 -618.066 -2845.508 1898.047 0.000 -563.867 1892.969 -2855.176 1478.027 2954.199 -2930.469 2668.848 905.176 -644.336 -1425.879 1046.973 -1633.203 1025.586 0.000 0.000 -50.000
-1503.125 14.648 3062.402 -368.652 1314.941 1655.078 2682.129 2845.117 -170.996 -745.801 -106.836 -1614.258 0.000 2012.891 -3006.738 -615.430 -2843.262 1835.156 0.000 -566.504 1896.191 -2851.953 1472.949 2941.699 -2935.840 2666.992 898.730 -529.199 -1431.836 1019.531 -1640.430 1012.793 0.000 0.000 -50.000
-1505.078 13.086 3059.863 -374.121 1312.891 1654.688 2678.906 2841.797 -174.902 -747.949 -109.570 -1618.457 0.000 2006.152 -3007.910 -618.164 -2844.238 1782.422 0.000 -567.090 1894.727 -2851.465 1470.605 2972.070 -2937.012 2665.430 895.215 -453.320 -1434.668 1005.664 -1610.352 1000.977 0.000 0.000 -50.000
-1511.230 7.910 3055.664 -377.930 1307.910 1646.582 2673.340 2840.039 -178.516 -752.734 -117.090 -1621.973 0.000 2003.125 -3012.305 -624.414 -2848.828 1737.598 0.000 -572.461 1889.746 -2857.520 1467.188 3002.637 -2940.430 2663.379 892.969 -422.559 -1436.426 997.070 -1500.000 989.453 0.000 0.000 -50.000
-1516.504 0.195 3051.953 -377.734 1304.492 1638.379 2670.117 2839.160 -179.004 -760.059 -120.801 -1621.094 0.000 2008.203 -3013.379 -628.320 -2854.492 1697.656 0.000 -572.754 1883.594 -2862.988 1469.629 3002.637 -2940.430 2659.570 895.313 -408.105 -1431.738 997.461 -1418.066 987.402 0.000 0.000 -50.000
-1527.246 -11.328 3046.777 -380.273 1296.680 1624.805 2664.551 2838.477 -181.250 -769.043 -131.152 -1620.801 0.000 2010.840 -3016.992 -637.500 -2858.887 1689.453 0.000 -569.629 1877.539 -2869.141 1474.219 3003.906 -2940.918 2658.594 896.484 -316.992 -1428.027 1003.027 -1412.402 986.230 0.000 0.000 -50.000
-1539.648 -25.781 3035.938 -387.012 1285.840 1609.277 2657.129 2833.105 -187.891 -782.031 -142.480 -1625.879 0.000 2008.203 -3025.977 -649.707 -2862.207 1650.000 0.000 -568.750 1870.898 -2875.000 1475.488 3036.230 -2943.457 2653.320 898.535 -200.781 -1428.125 1009.375 -1365.723 987.305 0.000 0.000 -50.000
-1553.125 -38.770 3023.828 -397.754 1274.512 1593.945 2644.238 2822.949 -199.121 -796.387 -157.324 -1637.988 0.000 1999.121 -3036.816 -663.770 -2869.629 1657.910 0.000 -573.926 1862.402 -2883.496 1469.434 3113.965 -2950.488 2644.922 894.141 -124.805 -1433.398 1010.059 -1295.801 1001.367 0.000 0.000 -50.000
-1565.625 -50.488 3010.938 -411.328 1259.863 1582.910 2630.469 2809.570 -213.086 -810.059 -170.898 -1651.563 0.000 1982.910 -3049.023 -677.246 -2885.938 1644.238 0.000 -590.527 1847.266 -2896.680 1454.199 -3187.793 -2962.695 2631.641 882.129 86.328 -1448.340 1002.539 -1254.883 1001.172 0.000 0.000 -50.000
-1562.988 -47.949 3010.156 -414.648 1261.523 1585.547 2628.027 2804.102 -216.699 -806.836 -173.926 -1657.227 0.000 1974.219 -3052.832 -678.320 -2894.434 1632.422 0.000 -602.637 1842.090 -2903.223 1439.844 -3158.008 -2971.875 2621.973 869.531 180.566 -1461.328 991.113 -1235.547 997.461 0.000 0.000 -50.000
-1555.469 -38.672 3016.016 -413.770 1269.238 1598.340 2632.617 2804.297 -215.723 -798.828 -168.750 -1658.984 0.000 1967.383 -3049.609 -671.387 -2896.289 1617.969 0.000 -609.473 1843.457 -2900.488 1432.715 3198.340 -2978.711 2619.824 858.984 218.066 -1467.285 980.664 -1223.145 988.574 0.000 0.000 -50.000
-1560.840 -42.480 3008.008 -425.391 1264.063 1596.973 2624.219 2789.160 -228.613 -803.809 -178.320 -1673.926 0.000 1948.242 -3060.059 -678.613 -2904.004 1590.039 0.000 -623.828 1836.035 -2909.863 1416.113 -3176.074 -2993.750 2606.934 837.500 516.016 -1484.863 955.176 -1195.117 951.660 0.000 0.000 -50.000
-1620.117 -101.563 2946.777 -489.746 1200.781 1535.742 2561.621 2725.000 -293.750 -862.402 -241.016 -1738.672 0.000 1881.543 -3122.559 -740.918 -2963.477 1524.805 0.000 -688.672 1775.586 -2972.168 1350.195 3155.957 -3056.348 2542.969 769.531 2372.363 -1549.316 879.688 -1233.496 851.758 0.000 0.000 -50.000
-1640.137 -120.898 2929.199 -507.129 1183.887 1517.285 2541.602 2707.910 -311.719 -882.422 -261.914 -1757.227 0.000 1864.063 -3140.039 -759.473 -2985.352 1498.047 0.000 -708.008 1753.516 -2990.820 1330.469 3171.387 -3072.656 2524.805 751.367 2899.512 -1564.648 860.742 -1226.758 795.508 0.000 0.000 -50.000
-1587.793 -69.531 2983.789 -449.512 1238.184 1567.578 2595.801 2766.602 -253.223 -828.613 -211.133 -1695.605 0.000 1925.586 -3082.520 -706.152 -2930.664 1550.977 0.000 -648.145 1806.348 -2938.379 1390.723 3149.414 -3015.820 2580.078 813.281 1386.426 -1504.883 920.996 -1181.250 827.637 0.000 0.000 -50.000
-1571.582 -55.273 3003.809 -425.195 1258.203 1580.469 2617.773 2791.602 -228.516 -811.719 -193.457 -1668.945 0.000 1954.688 -3060.449 -688.672 -2907.617 1573.242 0.000 -619.922 1827.441 -2916.992 1421.484 3079.980 -2988.672 2603.809 846.094 840.527 -1475.293 949.902 -1168.359 831.836 0.000 0.000 -50.000
-1564.063 -48.438 3014.648 -410.352 1265.332 1585.254 2629.980 2807.324 -214.160 -804.395 -185.840 -1654.980 0.000 1973.145 -3048.145 -680.566 -2891.211 1595.020 0.000 -595.801 1841.699 -2900.391 1447.168 2948.828 -2970.703 2622.070 869.238 534.375 -1452.344 973.242 -1142.285 856.348 0.000 0.000 -50.000
-1545.020 -30.078 3034.766 -389.355 1285.059 1602.637 2650.586 2830.078 -193.164 -786.914 -170.020 -1633.496 0.000 1994.336 -3027.441 -661.426 -2868.066 1624.121 0.000 -569.141 1865.137 -2878.223 1473.438 3013.770 -2944.824 2645.410 901.465 188.867 -1425.195 995.898 -1477.344 894.336 0.000 0.000 -50.000
-1444.824 70.703 3136.035 -288.672 1386.133 1704.590 2749.902 2930.273 -91.992 -685.059 -72.656 -1531.543 0.000 2093.262 -2925.391 -562.012 -2768.555 1718.359 0.000 -470.117 1963.867 -2779.590 1570.996 3110.352 -2844.727 2745.605 1000.586 -82.031 -1325.391 1106.934 2377.441 1008.105 0.000 0.000 -50.000
-1421.484 93.555 3156.934 -270.215 1408.789 1729.102 2770.215 2946.973 -73.633 -662.207 -54.199 -1516.309 0.000 2107.910 -2905.859 -539.160 -2754.199 1729.980 0.000 -461.230 1977.344 -2763.281 1579.492 3064.844 -2831.348 2760.059 1002.832 -219.824 -1313.086 1134.473 2087.109 1036.719 0.000 0.000 -50.000
-1442.090 74.805 3132.031 -299.707 1385.938 1712.207 2743.555 2917.188 -102.441 -682.715 -78.809 -1547.070 0.000 2073.340 -2933.398 -562.012 -2783.887 1705.469 0.000 -494.336 1950.488 -2790.039 1541.895 2984.570 -2866.113 2728.516 962.793 -26.270 -1349.316 1106.543 2730.859 1008.008 0.000 0.000 -50.000
-1469.238 49.121 3101.855 -333.105 1356.641 1688.477 2710.645 2879.297 -139.258 -709.570 -112.695 -1585.742 0.000 2030.273 -2967.871 -591.895 -2814.160 1677.539 0.000 -529.980 1921.680 -2819.336 1500.391 2943.750 -2903.223 2693.652 917.383 328.906 -1388.770 1060.547 -3032.227 937.207 0.000 0.000 -50.000
-1446.094 71.875 3123.633 -315.430 1378.613 1710.840 2729.395 2897.852 -121.191 -686.035 -95.801 -1568.359 0.000 2045.313 -2948.340 -570.313 -2794.531 1714.063 0.000 -511.914 1942.773 -2799.316 1514.258 2969.238 -2884.766 2712.695 931.348 411.719 -1371.973 335.645 -2927.441 952.344 0.000 0.000 -50.000
-1341.602 175.098 -3173.535 -210.938 1482.031 1812.793 2833.301 3001.563 -15.527 -581.934 3.223 -1463.184 0.000 2150.098 -2843.359 -466.504 -2692.480 1826.953 0.000 -410.449 2044.824 -2695.801 1617.676 3039.941 -2781.348 2815.039 1034.668 -1661.719 -1269.531 -373.828 -2923.438 1068.262 0.000 0.000 -50.000
-1125.586 390.820 -2955.859 9.668 1700.879 2029.688 3053.223 -3177.637 205.762 -363.184 216.309 -1240.039 0.000 2371.094 -2623.242 -248.730 -2473.730 1975.586 0.000 -185.156 2260.742 -2479.297 1840.234 -3169.727 -2559.863 3034.766 1256.543 -1779.688 -1045.801 164.258 -2761.914 1280.273 0.000 0.000 -50.000
-1182.129 332.227 -3009.961 -40.430 1645.703 1972.559 2999.023 3175.195 156.836 -420.801 157.129 -1287.695 0.000 2325.586 -2675.098 -304.004 -2525.488 1901.270 0.000 -229.590 2207.715 -2532.031 1796.582 -1736.230 -2606.738 2984.180 1211.621 -2020.703 -1090.527 357.227 -2835.742 1274.316 0.000 0.000 -50.000
-1071.191 442.285 -2894.043 79.199 1759.961 2080.957 3115.234 -3104.199 277.930 -307.715 267.871 -1165.918 0.000 2450.293 -2557.715 -189.258 -2410.645 2014.844 0.000 -111.230 2320.996 -2417.676 1920.508 1118.848 -2484.277 3107.324 1339.355 -1700.293 -963.184 371.387 -2716.797 1427.344 0.000 0.000 -50.000
-1038.965 473.730 -2859.570 116.992 1794.727 2112.012 3151.074 -3065.332 316.309 -276.855 303.223 -1126.953 0.000 2489.746 -2521.875 -155.859 -2373.535 2061.816 0.000 -71.875 2354.785 -2383.301 1964.063 4.102 -2444.824 3145.020 1381.543 -1436.523 -922.461 223.340 -2683.594 1469.629 0.000 0.000 -50.000
-1111.426 400.391 -2932.031 44.434 1720.605 2036.426 3077.734 -3137.109 242.285 -350.293 229.492 -1198.730 0.000 2417.090 -2595.996 -230.371 -2446.484 1999.707 0.000 -144.824 2280.664 -2457.129 1890.820 214.258 -2519.434 3070.313 1309.277 470.020 -996.387 77.832 -2760.352 1399.414 0.000 0.000 -50.000
-1212.695 300.586 -3033.594 -61.914 1619.434 1938.086 2975.781 3158.301 136.914 -451.367 126.465 -1305.176 0.000 2309.570 -2697.461 -332.422 -2551.465 1886.914 0.000 -250.000 2177.441 -2561.426 1783.887 556.738 -2625.195 2964.355 1199.609 3094.434 -1103.418 -59.570 -2874.609 1291.797 0.000 0.000 -50.000
-1238.379 276.074 -3062.500 -94.238 1593.262 1912.012 2945.605 3124.902 104.785 -477.051 96.289 -1339.258 0.000 2273.438 -2728.906 -360.645 -2583.887 1828.613 0.000 -287.695 2146.875 -2590.527 1745.410 824.609 -2659.961 2930.371 1160.352 -2619.336 -1141.504 -119.727 -2921.484 1262.598 0.000 0.000 -50.000
-1221.875 294.434 -3048.145 -85.156 1607.031 1931.055 2956.641 3132.129 112.305 -460.156 106.934 -1332.520 0.000 2276.270 -2717.871 -345.801 -2574.609 1791.406 0.000 -282.324 2158.398 -2579.004 1745.605 772.168 -2654.492 2938.477 1156.055 -2723.438 -1139.258 -134.863 -2931.543 1252.051 0.000 0.000 -50.000
-1207.324 307.910 -3037.012 -77.441 1621.582 1948.535 2966.699 3139.453 121.973 -446.777 117.480 -1325.098 0.000 2281.836 -2707.813 -333.789 -2565.820 1768.066 0.000 -277.344 2167.871 -2570.703 1748.633 645.703 -2648.438 2947.461 1156.055 -2777.539 -1133.984 -141.797 -2940.625 1252.539 0.000 0.000 -50.000
-1189.551 326.270 -3020.020 -59.961 1638.281 1966.504 2983.105 3157.422 138.770 -427.832 131.934 -1309.375 0.000 2299.902 -2690.039 -314.941 -2548.926 1767.383 0.000 -259.570 2184.961 -2558.691 1765.137 579.980 -2630.371 2964.160 1172.754 -2777.930 -1117.285 -129.004 -2937.305 894.336 0.000 0.000 -50.000
-1179.785 336.621 -3008.105 -46.484 1647.656 1975.000 2995.996 3170.898 151.855 -417.285 143.066 -1295.313 0.000 2313.184 -2679.004 -306.055 -2535.449 1774.707 0.000 -243.652 2195.996 -2546.973 1776.367 540.234 -2615.723 2976.758 1187.598 -2771.289 -1101.172 -113.477 -2927.441 600.977 0.000 0.000 -50.000
-1189.160 324.023 -3013.477 -48.926 1641.309 1963.086 2991.309 3169.336 149.707 -427.246 135.547 -1297.168 0.000 2315.039 -2682.422 -312.305 -2539.453 1768.555 0.000 -240.039 2191.309 -2553.613 1767.480 499.902 -2615.137 2974.609 1196.387 -2775.488 -1098.047 -107.715 -2928.125 740.625 0.000 0.000 -50.000
-1199.121 313.281 -3020.215 -51.367 1633.398 1949.609 2985.840 3168.750 147.754 -438.086 125.586 -1296.191 0.000 2319.141 -2686.914 -321.191 -2542.285 1766.699 0.000 -236.230 2185.156 -2558.203 1781.152 479.980 -2616.211 2970.996 1203.027 -2776.953 -1096.387 -99.023 -2923.438 831.543 0.000 0.000 -50.000
-1207.520 304.980 -3025.781 -53.223 1626.758 1939.453 2982.129 3168.945 144.434 -445.508 118.359 -1298.047 0.000 2319.531 -2691.992 -330.176 -2545.215 1770.605 0.000 -235.547 2179.590 -2566.992 1783.301 460.059 -2618.164 2968.750 1209.473 -2780.371 -1092.871 -94.141 -2922.754 932.324 0.000 0.000 -50.000
-1208.594 302.148 -3025.781 -55.176 1623.730 1935.547 2979.590 3168.945 141.602 -449.023 113.477 -1299.805 0.000 2318.945 -2694.336 -332.910 -2547.852 1784.180 0.000 -236.133 2175.195 -2574.316 1783.789 437.402 -2618.848 2967.383 1213.574 -2793.164 -1094.434 -94.629 -2930.566 1010.156 0.000 0.000 -50.000
-1232.520 276.563 -3052.441 -82.715 1599.805 1912.012 2951.270 3140.527 115.430 -474.609 86.426 -1327.637 0.000 2288.574 -2721.094 -359.180 -2575.293 1750.488 0.000 -265.625 2148.926 -2602.930 1753.125 390.723 -2648.340 2939.063 1173.242 -2837.695 -1123.730 -129.590 -2967.676 1874.707 0.000 0.000 -50.000
-1254.785 256.738 -3076.563 -109.766 1577.441 1891.699 2926.758 3111.035 87.891 -495.898 61.133 -1357.520 0.000 2258.105 -2747.363 -383.105 -2601.660 1717.188 0.000 -295.215 2123.926 -2631.348 1723.340 344.434 -2678.223 2911.426 1139.063 -2884.473 -1155.859 -168.262 -3010.449 2720.410 0.000 0.000 -50.000
-1259.863 254.395 -3085.938 -122.949 1569.727 1888.281 2915.527 3097.559 74.902 -499.707 52.539 -1374.121 0.000 2239.941 -2757.910 -390.332 -2614.355 1690.625 0.000 -312.891 2113.477 -2643.066 1702.441 310.938 -2692.871 2896.777 1123.730 -2919.531 -1173.730 -195.898 -3041.895 3154.492 0.000 0.000 -50.000
-1257.910 256.738 -3086.230 -125.879 1570.898 1894.336 2913.770 3092.871 72.754 -497.070 53.613 -1378.125 0.000 2232.129 -2759.766 -387.793 -2616.992 1679.785 0.000 -317.676 2112.500 -2645.605 1691.699 293.262 -2698.828 2894.141 1119.434 -2940.918 -1179.883 -211.816 -3060.254 -3112.598 0.000 0.000 -50.000
-1254.785 258.984 -3085.742 -126.270 1572.656 1897.070 2913.770 3091.895 72.168 -496.289 53.027 -1378.711 0.000 2231.836 -2759.277 -387.793 -2617.188 1676.074 0.000 -319.336 2113.086 -2646.191 1693.750 286.621 -2698.438 2892.578 1110.156 -2954.004 -1181.445 -215.723 -3067.969 -3074.023 0.000 0.000 -50.000
-1257.715 255.371 -3086.719 -124.316 1571.387 1894.043 2912.598 3092.090 71.484 -499.609 50.098 -1379.102 0.000 2232.031 -2761.621 -391.016 -2618.457 1673.535 0.000 -318.066 2110.449 -2649.707 1698.145 288.770 -2697.363 2892.773 1110.156 -2957.715 -1179.980 -211.523 -3066.406 -3053.027 0.000 0.000 -50.000
-1262.500 248.340 -3089.746 -126.465 1566.992 1885.645 2909.668 3094.043 72.070 -505.469 43.652 -1378.223 0.000 2235.645 -2762.891 -394.922 -2620.020 1675.195 0.000 -314.844 2106.836 -2654.199 1702.441 297.559 -2696.289 2892.578 1114.844 -2958.789 -1177.148 -205.957 -3060.352 -3037.207 0.000 0.000 -50.000
-1271.777 239.941 -3093.164 -126.270 1560.059 1873.926 2905.762 3094.824 72.363 -512.598 36.035 -1377.832 0.000 2240.332 -2765.332 -403.320 -2621.582 1678.027 0.000 -310.645 2104.102 -2659.961 1710.938 312.012 -2695.801 2891.699 1116.602 -2954.688 -1171.973 -194.727 -3051.367 -3025.684 0.000 0.000 -50.000
-1276.758 233.105 -3095.801 -127.148 1557.227 1865.039 2903.516 3096.094 71.582 -517.676 30.566 -1376.660 0.000 2243.945 -2767.871 -408.398 -2622.363 1683.301 0.000 -306.836 2101.074 -2663.770 1719.434 321.387 -2694.727 2892.773 1111.523 -2953.809 -1167.578 -185.938 -3044.238 -3020.410 0.000 0.000 -50.000
-1276.953 232.617 -3097.070 -125.977 1556.055 1863.379 2903.516 3097.949 70.703 -519.141 29.883 -1376.270 0.000 2246.191 -2768.945 -407.813 -2622.559 1684.570 0.000 -305.859 2099.316 -2664.746 1722.852 325.977 -2693.262 2893.848 1111.719 -2957.520 -1164.844 -181.836 -3042.773 -3032.910 0.000 0.000 -50.000
-1275.391 233.203 -3096.191 -125.977 1558.301 1866.309 2903.809 3097.754 70.313 -518.457 30.566 -1376.855 0.000 2245.313 -2768.848 -405.469 -2621.289 1687.500 0.000 -305.762 2099.121 -2665.430 1721.582 321.582 -2693.262 2893.750 1136.914 -2966.797 -1167.773 -184.180 -3048.535 -3045.508 0.000 0.000 -50.000
-1268.750 240.820 -3090.430 -124.316 1564.648 1876.172 2907.813 3097.559 73.340 -511.328 35.254 -1377.051 0.000 2244.922 -2765.625 -398.828 -2619.922 1687.891 0.000 -306.055 2104.492 -2663.281 1714.648 312.988 -2693.555 2894.824 1127.930 -2980.762 -1169.043 -191.406 -3061.133 -3061.621 0.000 0.000 -50.000
-1257.813 253.809 -3083.789 -121.582 1572.461 1889.551 2913.965 3098.535 75.488 -502.051 41.016 -1376.660 0.000 2240.625 -2760.547 -391.699 -2617.578 1688.086 0.000 -308.496 2110.059 -2661.035 1710.840 298.242 -2693.652 2897.070 1116.113 -2999.805 -1169.727 -203.320 -3076.953 -3081.055 0.000 0.000 -50.000
-1248.828 263.184 -3079.785 -121.289 1580.566 1900.781 2917.090 3097.852 76.172 -492.383 46.484 -1377.930 0.000 2237.891 -2757.129 -384.570 -2615.723 1691.113 0.000 -308.301 2114.258 -2658.203 1707.715 286.426 -2693.652 2899.805 1107.129 -3013.965 -1173.242 -212.207 -3090.527 -3098.145 0.000 0.000 -50.000
-1244.434 267.188 -3077.148 -119.727 1582.422 1903.613 2917.383 3098.535 77.832 -489.160 49.512 -1377.344 0.000 2238.379 -2755.859 -381.641 -2613.965 1690.527 0.000 -308.301 2115.723 -2655.176 1708.496 282.422 -2691.895 2900.879 1102.832 -3023.145 -1173.242 -216.895 -3097.754 -3109.570 0.000 0.000 -50.000
-1246.777 266.016 -3077.734 -118.848 1582.324 1901.270 2915.918 3099.414 77.734 -491.309 45.508 -1377.637 0.000 2240.039 -2757.715 -381.836 -2615.723 1693.262 0.000 -306.445 2115.430 -2657.813 1711.914 285.352 -2690.527 2901.172 1111.914 -3028.516 -1170.605 -213.184 -3098.633 -3113.477 0.000 0.000 -50.000
-1250.977 259.863 -3080.762 -118.945 1576.270 1895.215 2913.086 3101.270 77.930 -494.922 40.723 -1375.781 0.000 2242.773 -2759.277 -386.621 -2616.895 1699.609 0.000 -305.273 2113.867 -2661.133 1715.137 292.969 -2690.039 2900.391 1116.602 -3026.563 -1167.969 -206.055 -3092.480 -3111.816 0.000 0.000 -50.000
-1259.570 248.828 -3084.180 -120.117 1570.996 1883.398 2909.375 3102.344 75.684 -503.711 32.031 -1376.172 0.000 2244.531 -2761.426 -392.969 -2619.238 1708.594 0.000 -301.563 2107.617 -2665.625 1721.484 306.348 -2691.797 2898.633 1137.500 -3020.605 -1165.625 -195.215 -3084.668 -3104.688 0.000 0.000 -50.000
-1267.773 239.844 -3088.574 -121.777 1565.625 1872.070 2906.152 3102.148 75.586 -512.207 25.000 -1375.781 0.000 2250.488 -2766.211 -400.391 -2622.070 1712.891 0.000 -298.145 2102.832 -2671.094 1727.734 316.699 -2692.676 2897.363 1166.699 -3017.578 -1163.574 -185.547 -3076.953 -3100.098 0.000 0.000 -50.000
-1270.020 237.695 -3089.453 -121.582 1564.258 1868.359 2904.590 3102.148 75.781 -515.234 21.094 -1374.609 0.000 2251.563 -2767.578 -403.223 -2622.266 1716.016 0.000 -297.754 2102.441 -2672.754 1734.082 320.801 -2691.895 2897.168 1171.387 -3019.434 -1162.207 -181.738 -3075.781 -3101.758 0.000 0.000 -50.000
-1268.652 239.355 -3087.793 -120.215 1566.211 1871.289 2905.078 3104.102 76.172 -512.402 19.824 -1375.684 0.000 2252.637 -2766.309 -401.074 -2621.875 1717.969 0.000 -298.340 2103.223 -2672.070 1735.254 320.215 -2691.406 2897.168 1166.602 -3025.879 -1161.816 -182.910 -3079.004 -3109.277 0.000 0.000 -50.000
-1260.352 245.605 -3083.301 -117.773 1570.703 1878.711 2905.859 3103.418 77.148 -506.543 24.121 -1375.879 0.000 2250.977 -2763.086 -395.508 -2621.484 1714.746 0.000 -298.145 2106.055 -2668.555 1728.809 311.035 -2691.016 2899.902 1162.402 -3036.328 -1161.914 -188.770 -3088.574 -3122.168 0.000 0.000 -50.000
-1251.270 255.762 -3079.785 -116.406 1579.492 1891.406 2910.156 3102.832 79.102 -498.145 30.566 -1376.367 0.000 2248.438 -2759.570 -388.086 -2618.652 1708.203 0.000 -300.098 2111.914 -2665.039 1723.047 298.828 -2689.746 2902.637 1156.543 -3051.172 -1165.234 -198.730 -3101.563 -3138.672 0.000 0.000 -50.000
-1241.602 266.406 -3074.023 -116.016 1587.109 1903.613 2914.160 3102.051 81.055 -488.965 35.742 -1376.660 0.000 2245.801 -2756.152 -379.688 -2613.965 1704.883 0.000 -302.441 2117.285 -2659.668 1714.258 283.594 -2690.723 2904.492 1154.395 -3066.016 -1167.969 -208.008 -3116.211 -3156.641 0.000 0.000 -50.000
-1237.305 271.777 -3071.191 -114.355 1590.332 1909.082 2917.383 3103.125 83.496 -485.352 35.840 -1378.418 0.000 2244.434 -2751.660 -375.195 -2613.672 1703.125 0.000 -302.637 2121.191 -2657.617 1709.473 277.734 -2691.211 2906.641 1152.441 -3074.805 -1168.457 -212.012 -3124.121 -3167.480 0.000 0.000 -50.000
-1237.500 272.070 -3071.289 -113.086 1590.723 1907.910 2916.699 3103.906 84.082 -484.570 30.664 -1377.051 0.000 2246.973 -2752.637 -375.684 -2613.672 1704.590 0.000 -301.367 2122.656 -2658.203 1710.938 277.734 -2688.672 2906.934 1145.313 -3077.246 -1167.871 -210.645 -3121.289 -3170.410 0.000 0.000 -50.000
-1242.383 266.992 -3073.926 -112.695 1587.207 1902.637 2913.965 3104.199 83.301 -488.867 24.316 -1376.172 0.000 2250.000 -2754.395 -380.762 -2614.746 1707.324 0.000 -299.707 2120.508 -2658.594 1716.016 287.402 -2687.695 2907.227 1145.605 -3075.684 -1165.918 -202.441 -3116.113 -3166.699 0.000 0.000 -50.000
-1251.074 257.715 -3076.953 -113.281 1582.422 1893.945 2911.230 3106.250 82.813 -496.191 15.430 -1376.465 0.000 2252.441 -2757.813 -387.695 -2615.625 1713.770 0.000 -294.336 2115.820 -2662.793 1720.703 299.219 -2686.914 2906.934 1150.391 -3069.043 -1161.328 -192.480 -3108.496 -3158.301 0.000 0.000 -50.000
-1256.836 248.340 -3080.078 -113.379 1576.953 1883.203 2906.641 3108.008 81.738 -502.930 6.836 -1375.586 0.000 2257.324 -2760.938 -395.703 -2618.555 1717.676 0.000 -291.406 2111.426 -2666.406 1728.223 311.719 -2686.230 2904.395 1156.250 -3062.500 -1158.398 -182.910 -3097.363 -3149.316 0.000 0.000 -50.000
-1260.449 243.066 -3081.055 -112.012 1573.828 1875.000 2908.789 3109.082 82.617 -506.543 -0.781 -1375.977 0.000 2260.547 -2763.574 -398.145 -2619.824 1721.191 0.000 -291.309 2108.789 -2668.555 1732.324 318.262 -2686.230 2904.492 1159.766 -3061.035 -1158.301 -176.953 -3091.211 -3145.605 0.000 0.000 -50.000
-1259.277 243.359 -3081.152 -111.523 1573.340 1878.125 2913.477 3109.473 83.594 -507.715 -8.789 -1375.684 0.000 2261.035 -2763.086 -397.949 -2620.801 1722.852 0.000 -292.383 2111.426 -2668.555 1733.594 318.359 -2685.449 2905.371 1156.836 -3062.988 -1156.836 -176.563 -3092.188 -3149.512 0.000 0.000 -50.000
-1254.297 249.023 -3077.441 -111.133 1576.855 1883.496 2917.090 3108.496 85.254 -501.660 -10.645 -1376.270 0.000 2259.473 -2760.645 -393.555 -2619.043 1722.754 0.000 -292.578 2115.039 -2666.992 1731.934 310.938 -2686.328 2906.641 1153.711 -3071.582 -1158.398 -179.492 -3100.684 -3159.570 0.000 0.000 -50.000
-1246.094 257.520 -3072.656 -108.984 1583.984 1893.066 2923.047 3107.227 86.328 -496.191 -5.566 -1377.930 0.000 2257.715 -2757.617 -386.035 -2615.527 1710.449 0.000 -292.480 2119.727 -2661.816 1725.684 299.023 -2684.961 2908.301 1150.293 -3084.277 -1159.863 -188.574 -3111.621 -3171.973 0.000 0.000 -50.000
-1237.891 267.383 -3070.020 -108.008 1590.527 1904.395 2927.344 3108.105 87.012 -486.426 8.105 -1379.102 0.000 2253.711 -2754.004 -379.785 -2614.063 1710.645 0.000 -295.508 2124.219 -2656.934 1719.434 286.035 -2684.668 2907.910 1144.727 -3098.438 -1162.988 -198.145 -3124.414 -3188.574 0.000 0.000 -50.000
-1233.691 272.852 -3068.750 -108.203 1594.043 1912.012 2927.539 3106.543 87.500 -481.641 33.301 -1382.324 0.000 2250.391 -2752.441 -375.293 -2614.453 1719.727 0.000 -298.340 2128.027 -2655.664 1716.797 276.563 -2686.621 2909.375 1139.746 -3108.594 -1166.797 -204.980 -3135.449 3199.023 0.000 0.000 -50.000
-1234.082 273.633 -3068.457 -108.496 1594.727 1912.207 2928.516 3104.785 87.500 -482.031 44.824 -1382.715 0.000 2250.293 -2751.855 -374.414 -2615.039 1718.945 0.000 -297.656 2127.832 -2657.227 1716.406 275.977 -2685.645 2911.133 1136.328 -3112.695 -1166.895 -205.078 -3137.207 3196.484 0.000 0.000 -50.000
-1236.719 269.238 -3068.555 -106.348 1592.676 1906.543 2927.637 3108.203 88.281 -485.645 37.695 -1381.543 0.000 2252.832 -2753.809 -378.320 -2615.527 1713.867 0.000 -295.605 2128.125 -2658.789 1718.457 281.152 -2686.328 2911.133 1139.453 -3111.914 -1166.016 -199.023 -3130.664 3199.707 0.000 0.000 -50.000
-1242.871 259.766 -3070.117 -106.348 1587.109 1898.926 2926.172 3108.008 87.012 -491.406 28.125 -1381.055 0.000 2257.813 -2756.152 -381.641 -2615.820 1712.305 0.000 -291.504 2124.902 -2661.328 1723.047 292.188 -2685.059 2908.105 1142.480 -3105.273 -1162.500 -190.039 -3122.461 -3192.090 0.000 0.000 -50.000
-1251.172 252.051 -3074.219 -105.078 1580.566 1886.426 2923.340 3109.863 88.477 -500.684 22.070 -1378.320 0.000 2261.035 -2758.887 -388.770 -2616.992 1712.500 0.000 -288.477 2119.922 -2665.918 1726.074 305.469 -2684.570 2908.008 1144.629 -3096.680 -1159.180 -179.297 -3111.230 -3181.152 0.000 0.000 -50.000
-1255.957 245.020 -3077.246 -105.762 1578.223 1879.102 2919.531 3110.742 87.891 -506.348 22.754 -1378.516 0.000 2265.137 -2761.523 -393.750 -2619.727 1713.574 0.000 -288.281 2117.676 -2668.457 1731.543 313.184 -2682.617 2906.348 1147.266 -3091.797 -1157.031 -171.973 -3103.613 -3174.902 0.000 0.000 3199.902
-1257.813 243.652 -3077.148 -106.738 1578.906 1880.371 2918.945 3111.133 87.891 -507.031 31.055 -1378.320 0.000 2265.625 -2760.938 -393.457 -2620.117 1709.473 0.000 -287.500 2116.797 -2669.238 1731.152 315.039 -2683.105 2906.445 1146.387 -3094.434 -1156.348 -169.824 -3104.297 -3176.367 0.000 0.000 -50.000
-1250.781 249.121 -3074.512 -107.813 1579.297 1882.715 2918.652 3111.719 89.746 -501.855 45.508 -1378.223 0.000 2264.844 -2760.352 -389.941 -2618.652 1705.371 0.000 -287.598 2120.605 -2666.309 1725.000 308.301 -2683.203 2906.836 1144.238 -3103.711 -1158.984 -174.707 -3109.668 -3185.645 0.000 0.000 -50.000
-1245.410 255.957 -3071.191 -105.371 1584.277 1890.527 2919.824 3109.082 88.965 -495.996 57.520 -1378.906 0.000 2261.230 -2756.836 -383.887 -2618.164 1701.465 0.000 -290.332 2124.609 -2662.891 1720.215 299.512 -2684.180 2909.277 1139.551 -3113.379 -1160.254 -182.617 -3118.164 -3194.531 0.000 0.000 -50.000
-1236.816 266.602 -3066.406 -103.223 1592.969 1905.176 2920.215 3107.813 91.211 -486.426 57.227 -1379.297 0.000 2258.984 -2753.418 -375.488 -2614.453 1697.070 0.000 -291.895 2131.250 -2659.570 1713.672 286.426 -2683.887 2910.938 1134.766 -3127.539 -1162.402 -193.066 -3131.152 3190.723 0.000 0.000 -50.000
-1230.371 274.219 -3063.867 -101.953 1598.828 1914.355 2919.434 3107.129 92.871 -480.762 58.984 -1380.469 0.000 2254.980 -2749.805 -369.141 -2612.500 1693.262 0.000 -292.383 2136.230 -2655.566 1710.840 276.758 -2684.570 2913.477 1132.520 -3138.574 -1164.063 -199.902 -3139.746 3179.980 0.000 0.000 -50.000
-1227.734 278.320 -3062.012 -101.270 1599.707 1915.820 2919.629 3107.617 91.211 -477.832 62.305 -1379.492 0.000 2255.566 -2751.074 -368.262 -2611.816 1690.332 0.000 -292.969 2138.184 -2652.832 1708.691 273.633 -2683.301 2913.477 1133.398 -3145.020 -1166.113 -200.879 -3143.262 3176.367 0.000 0.000 -50.000
-1230.371 274.023 -3063.867 -101.953 1597.461 1912.207 2919.043 3108.203 92.285 -481.836 64.551 -1379.688 0.000 2256.641 -2751.855 -370.898 -2612.305 1691.699 0.000 -292.578 2137.402 -2656.543 1710.645 278.613 -2683.008 2913.184 1133.691 -3142.480 -1163.672 -196.680 -3139.648 3178.125 0.000 0.000 -50.000
-1236.426 265.234 -3066.309 -101.855 1592.383 1904.199 2913.770 3109.668 91.699 -487.891 58.301 -1379.297 0.000 2259.570 -2754.395 -374.316 -2613.867 1695.703 0.000 -290.234 2134.961 -2657.617 1714.941 288.281 -2682.715 2911.719 1138.184 -3138.574 -1162.500 -189.160 -3131.348 3188.477 0.000 0.000 -50.000
-1247.852 254.980 -3070.508 -103.613 1585.645 1894.043 2909.863 3110.547 90.918 -498.242 53.809 -1378.320 0.000 2263.086 -2757.227 -382.324 -2616.504 1700.879 0.000 -285.254 2129.492 -2662.891 1720.996 302.051 -2681.445 2910.156 1142.969 -3127.832 -1159.473 -176.953 -3120.410 3199.707 0.000 0.000 -50.000
-1252.441 248.828 -3072.656 -104.102 1580.469 1884.180 2908.496 3111.035 91.016 -503.125 45.410 -1376.660 0.000 2266.699 -2760.547 -388.574 -2617.480 1701.855 0.000 -283.203 2126.758 -2666.504 1726.270 309.473 -2681.738 2908.496 1147.949 -3123.145 -1156.738 -168.848 -3110.254 -3190.332 0.000 0.000 -50.000
-1254.688 246.387 -3073.926 -102.344 1579.590 1881.543 2907.813 3111.621 90.918 -504.785 49.707 -1377.832 0.000 2267.773 -2761.523 -390.332 -2619.141 1701.270 0.000 -282.910 2124.219 -2667.090 1728.320 312.598 -2681.738 2908.203 1148.242 -3123.926 -1154.980 -165.820 -3108.594 -3188.477 0.000 0.000 -50.000
-1252.246 250.293 -3072.754 -103.223 1582.031 1884.961 2908.789 3110.449 91.113 -502.441 53.223 -1378.125 0.000 2268.262 -2762.305 -386.328 -2617.480 1699.512 0.000 -283.398 2128.125 -2666.211 1727.637 307.031 -2682.227 2908.887 1147.266 -3129.395 -1157.031 -167.578 -3112.695 -3193.652 0.000 0.000 -50.000
-1245.996 255.371 -3068.848 -102.148 1586.914 1892.969 2911.523 3110.645 91.699 -496.875 57.227 -1379.004 0.000 2265.430 -2760.254 -380.566 -2615.234 1695.801 0.000 -285.254 2132.227 -2662.109 1724.512 298.828 -2681.055 2910.645 1143.555 -3139.355 -1158.398 -175.488 -3122.266 3195.410 0.000 0.000 -50.000
-1236.523 267.188 -3064.160 -102.637 1593.457 1905.176 2914.453 3109.961 92.969 -487.988 62.598 -1380.371 0.000 2261.328 -2754.980 -372.656 -2613.477 1688.379 0.000 -285.742 2137.793 -2658.594 1720.996 286.719 -2682.227 2913.770 1139.648 -3153.906 -1162.207 -186.133 -3134.375 3181.738 0.000 0.000 -50.000
-1230.176 273.047 -3060.156 -99.805 1600.879 1915.625 2920.117 3109.180 93.066 -480.371 71.582 -1381.055 0.000 2257.520 -2750.879 -365.527 -2612.598 1683.496 0.000 -288.086 2143.848 -2654.785 1711.621 275.879 -2682.422 2913.965 1135.645 -3166.309 -1165.039 -194.043 -3144.629 3170.117 0.000 0.000 -50.000
-1226.563 274.805 -3058.789 -99.512 1603.223 1920.313 2922.559 3108.594 94.824 -476.270 72.266 -1381.055 0.000 2256.934 -2750.000 -362.207 -2611.426 1681.152 0.000 -288.086 2146.875 -2652.441 1708.301 270.020 -2681.836 2917.188 1134.180 -3173.926 -1165.723 -198.535 -3150.391 3165.625 0.000 0.000 -50.000
-1227.051 273.633 -3059.766 -99.023 1601.953 1918.262 2921.094 3108.496 95.215 -478.125 70.703 -1380.762 0.000 2259.766 -2751.855 -362.500 -2612.109 1680.762 0.000 -287.891 2144.434 -2653.809 1708.984 271.680 -2681.250 2917.090 1134.863 -3173.535 -1163.867 -194.141 -3147.852 3166.992 0.000 0.000 -50.000
-1234.766 266.309 -3062.500 -98.730 1596.777 1909.473 2916.406 3109.961 94.824 -484.570 69.531 -1379.785 0.000 2262.012 -2753.320 -367.578 -2614.063 1683.203 0.000 -285.449 2141.504 -2656.152 1712.598 279.395 -2680.273 2915.527 1138.477 -3166.016 -1161.426 -187.500 -3139.258 3175.781 0.000 0.000 -50.000
-1243.262 255.762 -3066.797 -99.902 1590.723 1898.535 2913.477 3111.914 92.480 -492.969 63.770 -1378.906 0.000 2265.723 -2756.836 -374.219 -2614.844 1687.988 0.000 -282.910 2137.109 -2660.449 1719.434 291.797 -2679.590 2912.988 1143.164 -3158.301 -1158.691 -175.195 -3128.613 3187.012 0.000 0.000 -50.000
-1250.879 247.461 -3069.922 -100.879 1584.277 1888.867 2912.891 3111.328 91.504 -501.563 62.695 -1378.613 0.000 2269.141 -2760.547 -379.102 -2616.699 1692.285 0.000 -280.273 2131.738 -2662.109 1723.242 301.367 -2681.055 2911.816 1147.559 -3151.367 -1155.859 -164.648 -3118.945 3196.777 0.000 0.000 -50.000
-1255.176 242.969 -3071.680 -101.563 1582.031 1883.203 2912.695 3111.621 91.211 -504.395 63.379 -1379.199 0.000 2269.922 -2763.574 -377.344 -2619.141 1694.531 0.000 -277.734 2130.664 -2665.527 1725.293 304.199 -2680.566 2911.426 1149.414 -3147.852 -1154.492 -161.035 -3114.941 -3197.852 0.000 0.000 -50.000
-1252.734 243.945 -3071.191 -101.074 1581.934 1884.473 2915.430 3112.988 90.918 -503.223 65.332 -1379.492 0.000 2271.387 -2762.598 -374.707 -2618.945 1693.652 0.000 -278.125 2129.980 -2664.160 1724.316 303.223 -2680.762 2910.352 1148.047 -3152.246 -1155.469 -163.379 -3117.188 3199.512 0.000 0.000 -50.000
-1246.973 248.438 -3069.141 -101.074 1587.012 1891.797 2919.629 3110.352 91.895 -498.047 70.410 -1379.785 0.000 2268.164 -2760.254 -368.652 -2616.797 1690.820 0.000 -277.637 2135.547 -2661.816 1719.336 294.629 -2681.250 2911.719 1145.508 -3163.086 -1156.445 -169.238 -3124.805 3190.039 0.000 0.000 -50.000
-1239.063 257.910 -3065.137 -99.707 1594.238 1903.418 2925.391 3109.570 91.504 -489.941 76.563 -1380.957 0.000 2263.281 -2756.641 -360.645 -2614.941 1684.766 0.000 -280.469 2140.430 -2658.008 1714.063 281.934 -2681.543 2915.039 1139.844 -3174.707 -1158.984 -177.148 -3136.719 3177.246 0.000 0.000 -50.000
-1231.738 266.406 -3060.742 -98.828 1600.488 1913.770 2928.125 3109.180 93.945 -482.031 83.496 -1381.738 0.000 2260.254 -2753.711 -351.563 -2613.281 1679.688 0.000 -283.496 2145.898 -2654.297 1708.398 270.313 -2681.348 2917.383 1136.914 -3187.695 -1162.891 -186.914 -3148.730 3164.844 0.000 0.000 -50.000
-1226.465 272.070 -3057.422 -97.852 1603.418 1919.141 2929.980 3108.984 94.824 -475.977 86.133 -1381.836 0.000 2260.059 -2753.027 -348.145 -2610.547 1676.758 0.000 -283.887 2149.121 -2652.051 1705.664 261.914 -2681.543 2917.383 1135.254 -3197.070 -1163.086 -193.066 -3155.176 3156.543 0.000 0.000 -50.000
-1227.539 270.313 -3057.227 -97.559 1603.809 1918.262 2931.934 3108.984 95.313 -477.246 85.254 -1381.543 0.000 2258.984 -2752.734 -346.973 -2612.598 1676.074 0.000 -281.543 2150.098 -2652.930 1705.762 261.914 -2680.371 2918.359 1135.547 -3198.926 -1163.379 -191.895 -3154.297 3156.445 0.000 0.000 -50.000
-1232.520 263.770 -3060.938 -97.168 1599.707 1912.109 2929.492 3109.766 94.141 -482.129 83.398 -1381.836 0.000 2261.621 -2754.395 -351.563 -2613.965 1678.320 0.000 -278.809 2146.387 -2654.980 1708.789 270.020 -2681.738 2917.578 1138.086 -3193.945 -1161.328 -183.496 -3148.438 3164.355 0.000 0.000 -50.000
-1241.406 254.785 -3065.625 -96.875 1593.066 1902.344 2922.949 3109.570 94.727 -490.918 81.348 -1379.785 0.000 2265.332 -2757.715 -357.715 -2614.160 1682.910 0.000 -275.781 2141.797 -2658.789 1713.867 281.348 -2681.641 2916.406 1141.602 -3185.059 -1158.398 -174.121 -3138.184 3174.512 0.000 0.000 -50.000
-1248.340 245.020 -3068.848 -97.949 1588.184 1891.113 2912.695 3112.500 94.043 -499.414 77.539 -1379.590 0.000 2268.066 -2760.840 -361.816 -2617.578 1686.230 0.000 -271.387 2136.914 -2662.598 1719.336 292.188 -2680.273 2916.406 1146.191 -3176.953 -1155.273 -162.598 -3127.734 3185.156 0.000 0.000 -50.000
-1251.367 240.234 -3070.410 -99.316 1585.742 1885.449 2909.766 3114.258 92.285 -502.930 75.195 -1380.176 0.000 2269.629 -2762.207 -364.355 -2619.629 1688.184 0.000 -271.582 2134.668 -2664.160 1721.973 297.266 -2679.785 2915.723 1148.242 -3174.121 -1152.051 -154.688 -3122.266 3190.625 0.000 0.000 -50.000
-1251.465 240.723 -3070.313 -99.707 1585.547 1885.742 2908.984 3114.258 91.504 -501.660 76.953 -1380.273 0.000 2272.168 -2762.109 -363.770 -2618.164 1686.230 0.000 -270.996 2133.887 -2664.160 1722.363 296.777 -2680.176 2915.820 1147.852 -3176.465 -1152.637 -154.883 -3122.070 3189.941 0.000 0.000 -50.000
-1249.023 244.727 -3067.969 -99.121 1588.867 1892.090 2913.477 3113.477 92.480 -498.633 82.520 -1379.785 0.000 2269.043 -2760.645 -357.910 -2619.434 1683.691 0.000 -270.117 2137.793 -2662.012 1719.238 291.992 -2681.641 2916.895 1144.727 -3186.328 -1152.734 -159.570 -3129.199 3183.398 0.000 0.000 -50.000
-1240.430 254.004 -3064.160 -97.949 1594.238 1900.488 2919.336 3110.742 92.578 -491.016 91.504 -1380.078 0.000 2266.602 -2759.082 -349.316 -2617.090 1680.469 0.000 -272.363 2141.602 -2658.887 1713.574 281.250 -2682.520 2918.457 1142.676 -3198.242 -1155.762 -171.191 -3139.160 3170.215 0.000 0.000 -50.000
-1231.445 261.133 -3061.816 -96.777 1600.586 1912.988 2924.609 3110.449 93.652 -484.668 100.977 -1380.273 0.000 2261.328 -2756.055 -340.332 -2613.965 1678.223 0.000 -274.219 2147.852 -2653.809 1708.594 268.164 -2684.473 2921.387 1137.793 3185.645 -1159.277 -180.273 -3151.367 3156.055 0.000 0.000 -50.000
-1226.660 267.676 -3057.813 -96.680 1605.176 1920.703 2927.832 3109.668 93.848 -476.855 106.836 -1380.273 0.000 2258.496 -2753.711 -335.938 -2612.109 1678.320 0.000 -276.758 2153.320 -2652.246 1704.883 260.742 -2685.938 2921.387 1134.766 3174.219 -1161.523 -189.063 -3160.156 3147.949 0.000 0.000 -50.000
-1228.906 266.699 -3057.324 -96.582 1604.395 1919.434 2926.758 3110.059 93.457 -478.320 112.109 -1382.129 0.000 2257.617 -2753.906 -334.668 -2611.914 1684.570 0.000 -276.367 2154.492 -2651.953 1704.004 261.523 -2687.891 2921.680 1135.938 3170.605 -1161.523 -188.477 -3160.449 3147.168 0.000 0.000 -50.000
-1234.473 259.961 -3061.328 -97.070 1600.977 1912.305 2931.543 3110.938 93.359 -485.352 112.891 -1382.031 0.000 2259.570 -2758.398 -335.840 -2615.430 1693.555 0.000 -276.563 2153.613 -2654.102 1705.566 268.164 -2686.523 2921.289 1136.426 3171.680 -1160.254 -181.934 -3155.371 3153.125 0.000 0.000 -50.000
-1242.578 251.270 -3067.480 -99.902 1593.066 1901.270 2933.594 3111.523 91.309 -492.676 111.914 -1381.152 0.000 2261.914 -2761.035 -340.234 -2618.848 1706.641 0.000 -273.047 2148.828 -2658.887 1707.910 279.199 -2687.012 2918.262 1139.648 3178.809 -1156.934 -171.875 -3145.703 3162.793 0.000 0.000 -50.000
-1253.125 240.039 -3072.363 -100.000 1584.961 1886.816 2927.051 3110.547 89.160 -503.027 108.789 -1381.348 0.000 2265.723 -2766.113 -347.168 -2622.754 1740.430 0.000 -270.801 2141.797 -2665.918 1712.891 291.797 -2686.914 2914.355 1143.066 3186.133 -1154.492 -160.547 -3133.398 3175.000 0.000 0.000 -50.000
-1261.523 233.008 -3077.539 -101.953 1579.297 1879.395 2922.070 3108.984 86.523 -510.254 106.543 -1383.105 0.000 2267.188 -2771.094 -351.074 -2626.660 1772.852 0.000 -269.336 2138.867 -2669.629 1714.746 300.977 -2688.281 2913.672 1144.238 3189.648 -1152.637 -151.953 -3126.855 3184.082 0.000 0.000 -50.000
-1262.793 230.566 -3077.441 -103.223 1579.590 1878.711 2920.020 3109.473 85.645 -511.719 110.547 -1383.496 0.000 2268.848 -2771.094 -347.168 -2627.344 1769.141 0.000 -269.824 2139.844 -2668.652 1713.574 304.590 -2687.109 2914.355 1143.945 3187.012 -1152.734 -150.684 -3125.391 3183.203 0.000 0.000 -50.000
-1258.691 234.570 -3074.121 -102.441 1582.715 1882.813 2916.211 3109.570 85.840 -507.910 117.676 -1381.934 0.000 2266.895 -2770.020 -341.602 -2626.074 1765.625 0.000 -271.289 2142.578 -2666.504 1711.523 300.000 -2688.379 2914.160 1143.359 3175.879 -1154.102 -154.785 -3128.516 3177.051 0.000 0.000 -50.000
-1251.270 242.480 -3071.387 -101.270 1589.453 1892.578 2916.797 3109.082 87.988 -499.805 127.930 -1382.520 0.000 2263.086 -2767.285 -329.785 -2622.656 1756.445 0.000 -273.730 2147.070 -2663.965 1708.691 291.113 -2689.355 2915.918 1140.234 3159.961 -1156.836 -164.648 -3139.648 3165.918 0.000 0.000 -50.000
-1240.820 253.418 -3066.406 -97.949 1596.973 1904.688 2918.457 3109.375 89.551 -490.039 140.137 -1382.813 0.000 2259.961 -2762.305 -314.355 -2619.043 1731.055 0.000 -276.367 2152.734 -2657.129 1703.027 279.297 -2688.574 2918.555 1135.059 3139.941 -1160.742 -176.172 -3152.637 3153.223 0.000 0.000 -50.000
-1234.082 260.840 -3061.719 -97.168 1601.660 1914.355 2922.168 3109.180 90.039 -481.738 149.902 -1383.105 0.000 2257.031 -2759.277 -303.027 -2618.066 1716.113 0.000 -278.027 2157.031 -2652.051 1699.707 270.215 -2690.234 2921.777 1132.031 3123.633 -1162.109 -185.156 -3162.598 3142.773 0.000 0.000 -50.000
-1232.129 262.109 -3060.547 -96.387 1602.148 1917.578 2922.168 3109.180 90.332 -480.566 154.590 -1381.152 0.000 2257.031 -2759.473 -298.340 -2616.992 1712.793 0.000 -280.566 2159.082 -2650.781 1698.730 268.848 -2688.867 2920.410 1132.813 3113.770 -1164.355 -187.500 -3164.551 3140.723 0.000 0.000 -50.000
-1237.402 257.617 -3063.477 -95.605 1600.684 1912.402 2919.531 3110.547 90.430 -484.863 157.031 -1380.273 0.000 2259.375 -2759.863 -299.902 -2620.410 1703.906 0.000 -277.344 2157.227 -2651.855 1699.609 275.293 -2687.500 2920.703 1134.863 3114.746 -1162.988 -179.980 -3158.301 3146.289 0.000 0.000 -50.000
-1245.703 248.828 -3066.797 -95.996 1595.801 1902.734 2915.137 3110.547 90.332 -491.211 155.566 -1378.613 0.000 2264.648 -2762.891 -302.246 -2621.289 1687.988 0.000 -274.121 2153.027 -2653.711 1703.516 289.063 -2685.645 2918.652 1140.820 3117.773 -1158.789 -169.238 -3146.094 3158.301 0.000 0.000 -50.000
-1254.004 238.770 -3072.559 -95.410 1588.965 1889.941 2907.031 3111.035 88.477 -498.340 152.734 -1378.906 0.000 2269.922 -2767.090 -307.715 -2623.340 1679.785 0.000 -271.484 2148.438 -2657.129 1709.668 304.590 -2684.277 2917.383 1144.824 3126.367 -1153.906 -154.297 -3131.836 3172.266 0.000 0.000 -50.000
-1261.328 230.859 -3077.148 -98.633 1583.105 1879.980 2903.711 3111.230 86.914 -507.520 149.902 -1379.590 0.000 2272.949 -2771.094 -309.863 -2627.246 1697.559 0.000 -270.703 2141.211 -2660.645 1711.914 315.723 -2682.422 2915.820 1148.633 3129.785 -1150.879 -144.141 -3121.289 3183.105 0.000 0.000 -50.000
-1263.965 228.320 -3078.027 -99.316 1582.227 1876.563 2904.004 3110.059 85.449 -510.547 151.465 -1378.418 0.000 2275.195 -2771.777 -309.473 -2627.441 1700.781 0.000 -270.605 2139.160 -2661.816 1712.500 319.922 -2682.422 2916.992 1148.535 3124.902 -1150.879 -140.234 -3118.750 3188.184 0.000 0.000 -50.000
-1261.230 231.250 -3076.855 -98.340 1583.691 1882.227 2903.125 3110.840 87.793 -507.617 155.469 -1378.516 0.000 2273.340 -2768.945 -301.953 -2625.977 1695.215 0.000 -270.996 2140.039 -2659.961 1711.523 315.332 -2682.520 2918.359 1148.047 3111.230 -1151.758 -142.676 -3123.340 3183.594 0.000 0.000 -50.000
-1254.590 237.891 -3072.754 -98.145 1590.137 1890.625 2906.250 3110.352 88.574 -500.098 163.770 -1377.734 0.000 2271.289 -2767.285 -289.453 -2625.781 1695.508 0.000 -272.363 2142.676 -2656.445 1706.738 305.469 -2683.887 2918.652 1143.750 3092.383 -1154.590 -151.074 -3133.105 3173.047 0.000 0.000 -50.000
-1245.313 248.438 -3067.480 -94.434 1599.219 1903.809 2908.887 3110.059 88.477 -491.699 172.754 -1375.195 0.000 2267.969 -2764.648 -270.996 -2621.680 1692.871 0.000 -276.465 2146.680 -2650.000 1701.465 291.113 -2684.082 2920.215 1137.793 3067.383 -1161.328 -165.723 -3147.168 3159.277 0.000 0.000 -50.000
-1237.305 257.520 -3062.891 -91.016 1605.762 1915.625 2911.426 3110.449 90.820 -484.277 180.371 -1374.316 0.000 2264.453 -2760.938 -255.469 -2618.359 1686.816 0.000 -279.297 2150.098 -2646.191 1698.633 280.859 -2685.254 2921.094 1135.547 3040.137 -1164.941 -176.563 -3159.766 3147.070 0.000 0.000 -50.000
-1233.594 259.473 -3060.547 -90.430 1608.105 1920.313 2911.914 3111.230 91.992 -479.395 185.156 -1372.363 0.000 2264.648 -2759.766 -243.262 -2617.773 1675.488 0.000 -279.883 2152.539 -2644.238 1695.801 275.977 -2685.840 2921.777 1135.449 3022.949 -1164.746 -178.711 -3164.551 3142.383 0.000 0.000 -50.000
-1236.426 256.836 -3062.402 -90.332 1605.078 1917.480 2910.645 3111.133 91.406 -482.617 184.180 -1368.359 0.000 2267.090 -2760.840 -236.230 -2619.629 1665.723 0.000 -280.078 2150.781 -2644.336 1695.410 279.492 -2684.180 2921.973 1137.793 3025.488 -1164.063 -174.121 -3163.184 3146.973 0.000 0.000 -50.000
-1244.629 249.121 -3066.309 -91.895 1601.563 1907.324 2906.445 3110.352 90.137 -489.551 181.055 -1371.289 0.000 2270.313 -2763.770 -234.180 -2622.656 1659.082 0.000 -278.809 2147.949 -2647.266 1699.023 290.332 -2683.203 2921.289 1139.355 3040.332 -1161.816 -163.477 -3152.441 3158.105 0.000 0.000 -50.000
-1254.785 237.500 -3072.070 -94.238 1592.480 1894.336 2899.805 3109.863 86.426 -498.438 175.293 -1372.266 0.000 2275.977 -2769.043 -239.160 -2626.172 1664.453 0.000 -276.758 2143.652 -2649.707 1703.613 303.027 -2681.250 2919.434 1144.629 3055.762 -1158.203 -148.730 -3138.867 3173.438 0.000 0.000 -50.000
-1263.281 227.930 -3077.441 -96.484 1586.328 1883.887 2895.508 3108.105 83.691 -507.422 168.359 -1372.754 0.000 2281.055 -2773.340 -242.480 -2629.980 1670.117 0.000 -273.242 2138.770 -2653.223 1706.738 314.355 -2678.516 2917.969 1147.656 3067.578 -1154.492 -133.887 -3128.125 3187.012 0.000 0.000 -50.000
-1266.992 224.512 -3078.711 -97.949 1582.324 1878.809 2892.188 3107.031 82.227 -511.035 166.699 -1371.094 0.000 2282.910 -2774.023 -243.164 -2630.273 1673.438 0.000 -272.461 2137.988 -2655.371 1707.910 318.848 -2678.711 2918.262 1148.828 3069.434 -1152.344 -128.125 -3124.414 3193.359 0.000 0.000 -50.000
-1266.211 224.219 -3080.371 -97.266 1583.301 1881.152 2893.066 3106.152 82.520 -510.449 169.629 -1370.605 0.000 2281.836 -2774.707 -236.816 -2630.371 1677.051 0.000 -274.707 2139.453 -2653.516 1704.590 315.234 -2679.199 2919.531 1147.754 3066.504 -1154.004 -130.566 -3126.172 3192.871 0.000 0.000 -50.000
-1259.766 229.883 -3076.465 -96.191 1588.965 1887.500 2897.266 3108.398 83.398 -505.762 175.391 -1370.020 0.000 2280.859 -2772.949 -229.590 -2628.711 1670.996 0.000 -277.344 2142.383 -2648.535 1702.148 306.055 -2678.418 2919.922 1143.652 3054.199 -1156.152 -137.109 -3136.426 3183.008 0.000 0.000 -50.000
-1250.586 240.332 -3071.582 -95.117 1597.266 1901.855 2903.906 3106.641 84.277 -497.266 184.375 -1368.359 0.000 2275.879 -2769.043 -220.313 -2626.367 1667.480 0.000 -279.688 2144.336 -2643.750 1695.996 291.797 -2680.176 2920.801 1140.137 3036.133 -1160.352 -148.730 -3151.758 3172.070 0.000 0.000 -50.000
-1241.797 250.586 -3066.016 -92.578 1603.516 1913.965 2909.668 3107.910 85.645 -487.402 192.090 -1368.848 0.000 2272.949 -2766.016 -212.402 -2621.875 1667.285 0.000 -283.301 2149.414 -2638.867 1689.453 277.344 -2681.348 2922.852 1135.156 3018.359 -1166.016 -162.793 -3167.188 3160.742 0.000 0.000 -50.000
-1238.477 254.492 -3063.379 -92.480 1606.641 1920.313 2914.160 3107.813 86.328 -483.984 195.020 -1369.531 0.000 2270.313 -2765.332 -208.496 -2620.410 1672.559 0.000 -285.938 2150.586 -2636.035 1687.207 269.043 -2682.227 2922.949 1132.422 3010.840 -1169.531 -167.773 -3175.391 3158.594 0.000 0.000 -50.000
-1238.867 252.246 -3064.453 -93.359 1605.469 1917.480 2914.453 3107.617 85.645 -485.059 194.238 -1370.703 0.000 2271.777 -2767.188 -212.305 -2622.461 1681.543 0.000 -287.695 2147.852 -2636.523 1685.840 270.117 -2682.715 2922.754 1134.766 3012.695 -1170.117 -164.648 -3172.754 3164.746 0.000 0.000 -50.000
-1247.656 244.238 -3069.434 -94.629 1600.195 1908.984 2908.105 3106.543 83.984 -491.211 188.965 -1370.801 0.000 2276.953 -2770.410 -221.387 -2625.781 1696.387 0.000 -287.012 2144.727 -2637.695 1689.160 278.613 -2679.688 2920.703 1136.816 3019.238 -1167.578 -154.004 -3165.625 3179.492 0.000 0.000 -50.000
-1257.617 234.473 -3076.270 -96.875 1591.895 1897.168 2904.199 3105.371 82.129 -500.879 182.129 -1374.219 0.000 2281.348 -2775.391 -232.031 -2629.004 1705.859 0.000 -283.691 2138.574 -2640.723 1692.188 291.113 -2678.809 2920.703 1142.383 3035.449 -1162.598 -138.672 -3152.832 3194.824 0.000 0.000 -50.000
-1266.895 223.438 -3081.934 -99.902 1585.840 1884.766 2899.023 3104.980 77.930 -511.719 173.535 -1376.465 0.000 2285.742 -2778.320 -243.652 -2630.664 1722.656 0.000 -280.664 2135.840 -2642.676 1695.313 302.930 -2676.465 2918.848 1146.094 3049.902 -1158.984 -122.852 -3137.793 -3197.559 0.000 0.000 -50.000
-1272.559 218.262 -3084.766 -102.344 1582.324 1876.855 2896.777 3104.199 77.734 -516.113 171.680 -1379.590 0.000 2289.941 -2781.543 -251.758 -2631.934 1737.891 0.000 -279.395 2134.766 -2642.578 1698.535 309.570 -2674.023 2919.824 1149.121 3058.789 -1154.004 -111.719 -3129.883 3185.938 0.000 0.000 -50.000
-1270.117 220.605 -3081.836 -99.219 1585.352 1879.688 2900.098 3107.031 79.688 -513.574 174.512 -1377.539 0.000 2292.676 -2778.906 -255.078 -2630.273 1741.797 0.000 -278.320 2135.938 -2637.598 1700.586 307.715 -2670.898 2922.070 1150.879 3059.180 -1152.051 -110.938 -3129.199 3127.832 0.000 0.000 -50.000
-1260.938 230.371 -3075.293 -93.359 1594.434 1892.090 2907.813 3110.254 84.668 -504.492 182.520 -1373.633 0.000 2294.434 -2773.535 -250.684 -2625.098 1752.148 0.000 -278.027 2142.480 -2640.039 1701.563 300.977 -2669.336 2925.977 1150.586 3054.980 -1153.711 -113.281 -3135.547 3021.680 0.000 0.000 -50.000
-1247.266 245.117 -3064.941 -88.184 1605.566 1907.422 2917.188 3115.137 91.699 -490.332 193.164 -1368.750 0.000 2294.238 -2765.820 -244.043 -2616.113 1768.066 0.000 -276.074 2151.953 -2637.402 1701.465 288.770 -2666.895 2931.543 1150.098 3047.168 -1153.516 -120.801 -3145.410 2877.148 0.000 0.000 -50.000
-1231.738 259.570 -3054.395 -81.250 1618.262 1927.148 2926.758 3120.508 97.949 -477.441 207.031 -1364.551 0.000 2294.629 -2758.398 -233.008 -2610.449 1777.246 0.000 -273.340 2160.059 -2625.391 1701.172 274.609 -2664.746 2938.281 1148.730 3036.133 -1153.906 -128.613 -3157.520 2727.246 0.000 0.000 -50.000
-1222.949 270.215 -3045.605 -75.488 1626.563 1939.941 2934.863 3125.293 102.441 -467.871 217.480 -1359.570 0.000 2295.410 -2752.051 -226.465 -2604.883 1784.082 0.000 -272.461 2168.262 -2618.066 1702.930 265.527 -2660.254 2942.773 1149.707 3030.078 -1153.906 -130.371 -3163.770 2598.535 0.000 0.000 -50.000
-1219.043 274.023 -3041.602 -69.922 1631.543 1942.773 2940.332 3128.516 107.129 -463.379 220.117 -1356.641 0.000 2299.609 -2748.438 -225.586 -2599.023 1782.715 0.000 -268.555 2173.145 -2613.770 1708.301 264.746 -2656.250 2946.875 1153.418 3029.590 -1150.684 -122.852 -3159.863 2493.164 0.000 0.000 -50.000
-1221.875 270.410 -3041.895 -68.555 1631.934 1939.355 2939.160 3131.543 109.570 -464.844 218.359 -1354.297 0.000 2307.324 -2747.070 -229.883 -2599.023 1786.328 0.000 -264.258 2174.414 -2610.840 1712.109 270.508 -2650.000 2948.535 1160.352 3041.504 -1144.336 -108.203 -3149.219 2412.988 0.000 0.000 -50.000
-1228.906 262.207 -3045.215 -67.969 1627.246 1929.297 2936.621 3133.691 112.793 -471.387 214.844 -1352.832 0.000 2314.258 -2746.777 -236.719 -2599.707 1794.336 0.000 -257.617 2175.391 -2612.402 1718.457 279.199 -2645.996 2951.660 1167.480 3060.547 -1137.988 -86.523 -3132.910 2345.508 0.000 0.000 -50.000
-1236.621 253.125 -3048.242 -66.797 1622.266 1918.164 2934.570 3136.719 111.621 -477.344 208.105 -1350.195 0.000 2322.266 -2746.387 -244.629 -2597.461 1801.367 0.000 -253.418 2173.242 -2614.746 1726.758 285.938 -2639.551 2953.516 1177.441 3077.441 -1129.297 -62.793 -3113.867 2279.004 0.000 0.000 -50.000
-1240.918 248.828 -3050.195 -63.867 1621.777 1913.867 2933.887 3137.305 114.844 -480.859 205.664 -1348.438 0.000 2329.102 -2745.996 -247.852 -2596.289 1800.977 0.000 -247.656 2174.121 -2614.746 1733.398 285.645 -2634.180 2956.543 1184.082 3089.551 -1122.168 -44.336 -3102.051 2210.059 0.000 0.000 -50.000
-1238.379 250.977 -3048.047 -63.672 1623.535 1914.551 2936.621 3139.551 117.383 -479.980 206.543 -1346.289 0.000 2332.129 -2744.629 -245.215 -2594.434 1801.953 0.000 -244.629 2176.758 -2609.570 1735.938 277.344 -2630.469 2959.180 1187.012 3092.090 -1120.605 -31.836 -3098.340 2144.727 0.000 0.000 -50.000
-1231.055 259.375 -3041.992 -60.156 1630.859 1921.973 2941.309 3142.383 119.434 -471.191 212.305 -1343.262 0.000 2333.105 -2740.820 -237.402 -2591.309 1801.953 0.000 -242.773 2182.324 -2606.348 1736.816 255.176 -2629.883 2962.305 1186.230 3089.941 -1122.754 -25.293 -3103.125 2072.168 0.000 0.000 -50.000
-1219.629 271.387 -3034.082 -54.004 1640.137 1938.574 2949.414 3146.094 123.047 -460.547 221.094 -1340.039 0.000 2332.031 -2734.180 -225.977 -2585.938 1798.047 0.000 -243.262 2188.477 -2603.516 1733.887 222.949 -2628.418 2965.625 1183.887 3080.859 -1125.195 -22.266 -3114.063 1995.605 0.000 0.000 -50.000
-1207.617 285.645 -3025.098 -49.609 1651.172 1953.809 2958.984 3148.730 128.906 -447.754 231.543 -1336.035 0.000 2329.395 -2728.906 -213.867 -2580.566 1801.172 0.000 -246.191 2196.094 -2598.047 1730.469 186.719 -2629.492 2969.434 1180.664 3066.113 -1128.027 -21.680 -3127.539 1921.973 0.000 0.000 -50.000
-1198.438 294.727 -3018.555 -46.289 1659.473 1965.918 2965.527 3151.074 131.445 -439.551 238.770 -1333.398 0.000 2327.832 -2723.730 -203.320 -2576.074 1808.301 0.000 -247.168 2201.660 -2592.285 1727.148 152.930 -2628.223 2971.777 1177.832 3055.078 -1132.422 -11.719 -3137.500 1859.375 0.000 0.000 -50.000
-1195.996 296.777 -3016.406 -44.824 1665.332 1968.652 2967.969 3153.223 133.203 -437.891 241.699 -1332.129 0.000 2329.785 -2721.777 -201.465 -2574.316 1818.262 0.000 -246.094 2204.785 -2591.504 1729.395 125.391 -2627.344 2972.852 1177.441 3055.762 -1131.348 9.961 -3137.500 1808.301 0.000 0.000 -50.000
-1199.121 293.359 -3017.773 -44.141 1662.402 1963.379 2966.211 3153.418 132.715 -439.258 236.719 -1331.250 0.000 2333.105 -2721.680 -204.785 -2574.219 1828.516 0.000 -243.359 2204.590 -2591.309 1732.617 109.375 -2625.000 2974.023 1181.445 3065.332 -1128.906 43.750 -3128.223 1768.262 0.000 0.000 -50.000
-1208.984 283.691 -3023.438 -45.020 1654.492 1949.902 2959.766 3151.563 130.957 -447.949 229.199 -1332.617 0.000 2336.133 -2724.609 -209.766 -2578.516 1840.527 0.000 -241.406 2202.148 -2594.043 1739.160 115.430 -2621.777 2973.535 1187.891 3084.668 -1125.293 86.035 -3110.645 1739.453 0.000 0.000 -50.000
-1221.680 269.727 -3031.055 -48.145 1647.363 1936.426 2954.688 3149.121 129.199 -459.082 219.824 -1335.254 0.000 2342.285 -2728.418 -219.336 -2581.348 1852.148 0.000 -238.672 2196.387 -2600.391 1744.922 116.797 -2618.262 2972.852 1193.066 3108.008 -1119.238 136.328 -3092.871 1724.707 0.000 0.000 -50.000
-1227.832 262.793 -3035.645 -50.879 1642.871 1926.563 2951.270 3148.828 129.004 -466.406 213.379 -1335.254 0.000 2349.023 -2730.273 -225.586 -2581.738 1861.914 0.000 -234.375 2194.531 -2602.441 1750.879 70.996 -2615.430 2972.852 1199.219 3129.492 -1114.453 183.301 -3080.273 1713.965 0.000 0.000 -50.000
-1228.418 260.938 -3034.473 -50.488 1642.285 1924.219 2951.758 3150.781 129.883 -468.848 213.184 -1333.008 0.000 2349.609 -2730.469 -224.023 -2580.762 1868.262 0.000 -232.813 2195.703 -2599.316 1755.273 2.344 -2613.086 2975.293 1203.027 3141.309 -1113.379 223.438 -3078.809 1700.684 0.000 0.000 -50.000
-1224.414 265.918 -3030.859 -47.949 1646.387 1929.590 2955.273 3151.855 132.715 -462.305 216.113 -1331.348 0.000 2350.293 -2728.027 -221.094 -2577.148 1870.410 0.000 -234.277 2198.828 -2592.773 1754.395 -70.215 -2611.719 2976.172 1201.953 3147.070 -1114.160 254.785 -3091.504 1686.523 0.000 0.000 -50.000
-1214.746 276.172 -3023.730 -44.531 1654.980 1942.773 2962.891 3155.176 135.840 -455.273 222.949 -1329.785 0.000 2345.996 -2724.219 -212.402 -2575.098 1870.410 0.000 -236.328 2202.441 -2585.645 1752.930 -140.137 -2611.914 2979.004 1198.145 3142.676 -1117.578 278.516 -3118.164 1669.434 0.000 0.000 -50.000
-1202.344 291.309 -3015.332 -39.258 1666.211 1957.910 2970.898 3156.934 140.039 -441.699 233.984 -1329.980 0.000 2342.871 -2718.359 -202.148 -2570.215 1868.262 0.000 -239.746 2207.324 -2580.078 1748.926 -203.613 -2612.109 2982.813 1192.871 3126.367 -1123.242 290.039 -3157.031 1658.984 0.000 0.000 -50.000
-1191.309 302.637 -3006.738 -34.375 1674.805 1971.680 2978.809 3159.668 144.824 -430.762 242.285 -1325.684 0.000 2340.332 -2712.109 -194.824 -2565.430 1868.359 0.000 -241.504 2213.965 -2571.680 1744.531 -250.879 -2612.207 2984.668 1188.770 3103.320 -1126.465 296.094 -3199.609 1649.316 0.000 0.000 -50.000
-1185.840 311.230 -3001.074 -31.055 1681.641 1979.590 2984.375 3164.063 148.828 -425.586 248.047 -1322.266 0.000 2343.066 -2706.934 -192.871 -2562.598 1872.656 0.000 -239.941 2217.871 -2562.891 1745.117 -285.645 -2608.887 2988.184 1190.234 3071.387 -1125.879 301.465 3157.520 1645.996 0.000 0.000 -50.000
-1183.984 313.867 -2998.047 -25.684 1684.961 1978.906 2988.965 3168.652 153.613 -423.438 249.121 -1316.699 0.000 2350.684 -2702.344 -192.676 -2558.008 1881.348 0.000 -235.840 2221.289 -2557.813 1753.027 -306.055 -2602.148 2993.652 1197.754 3020.605 -1118.945 302.930 3114.453 1648.145 0.000 0.000 -50.000
-1186.133 313.477 -2996.094 -20.605 1685.742 1976.367 2993.555 3175.391 159.277 -424.609 250.781 -1308.984 0.000 2360.938 -2697.949 -194.531 -2551.270 1894.629 0.000 -225.684 2225.684 -2551.758 1765.332 -308.789 -2592.676 3000.781 1209.961 2931.250 -1107.813 305.176 3068.750 1650.195 0.000 0.000 -50.000
-1187.793 311.133 -2993.555 -13.867 1686.914 1971.387 2995.605 3183.301 166.309 -425.586 250.586 -1300.781 0.000 2375.684 -2692.090 -197.363 -2545.117 1913.379 0.000 -211.621 2230.566 -2543.066 1781.738 -300.879 -2579.297 3010.547 1226.855 2796.973 -1092.285 311.035 3020.996 1650.684 0.000 0.000 -50.000
-1184.863 312.695 -2989.941 -6.934 1691.406 1970.020 3003.516 3193.457 174.609 -424.023 252.930 -1291.113 0.000 2390.137 -2684.766 -196.973 -2535.840 1931.934 0.000 -198.926 2237.988 -2532.813 1798.438 -288.086 -2565.527 3019.434 1242.285 2607.324 -1076.660 313.184 2972.168 1665.234 0.000 0.000 -50.000
-1177.246 324.023 -2979.590 5.273 1700.098 1976.660 3020.117 -3195.410 186.719 -415.137 261.133 -1279.395 0.000 2405.762 -2673.438 -187.988 -2525.488 1946.777 0.000 -186.035 2248.242 -2518.652 1812.695 -277.246 -2551.660 3032.617 1256.055 2366.602 -1061.230 313.086 2924.316 1648.730 0.000 0.000 -50.000
-1162.988 341.211 -2965.430 19.043 1716.016 1992.090 3030.664 -3182.227 201.074 -398.242 274.902 -1266.016 0.000 2418.359 -2659.961 -173.438 -2511.621 1963.379 0.000 -173.340 2261.133 -2504.102 1825.488 -269.727 -2537.793 3046.387 1267.285 2100.781 -1049.414 307.520 2882.910 1606.348 0.000 0.000 -50.000
-1142.383 364.551 -2947.461 34.180 1734.473 2015.234 3045.898 -3168.750 214.844 -379.297 295.117 -1251.465 0.000 2428.906 -2643.848 -154.492 -2496.387 1976.758 0.000 -164.355 2277.930 -2485.645 1834.180 -267.090 -2526.758 3059.863 1276.660 1798.730 -1041.699 309.473 2842.871 1560.059 0.000 0.000 -50.000
-1118.457 389.258 -2925.488 50.879 1756.836 2042.480 3067.480 -3153.223 230.371 -357.324 316.797 -1237.598 0.000 2436.328 -2626.270 -131.836 -2480.176 1991.016 0.000 -154.688 2294.141 -2468.066 1839.648 -263.965 -2516.699 3075.098 1283.008 1474.121 -1034.766 323.828 2788.086 1509.668 0.000 0.000 -50.000
-1096.484 414.355 -2908.008 63.574 1774.609 2066.504 3093.359 -3139.453 245.117 -334.570 336.230 -1225.293 0.000 2442.285 -2610.645 -114.063 -2466.113 2003.809 0.000 -147.266 2309.082 -2451.465 1845.508 -258.301 -2508.105 3087.402 1288.379 1171.582 -1028.418 362.402 2724.121 1460.352 0.000 0.000 -50.000
-1084.473 429.590 -2896.191 73.340 1787.402 2080.957 3120.117 -3131.348 256.445 -321.875 347.949 -1216.113 0.000 2448.340 -2600.879 -103.711 -2457.129 2016.895 0.000 -140.234 2318.359 -2436.816 1852.148 -249.121 -2500.879 3096.875 1294.141 921.094 -1023.340 434.375 2660.840 1423.145 0.000 0.000 -50.000
-1076.855 436.230 -2890.527 81.055 1794.238 2085.547 3115.430 -3123.242 264.648 -315.527 353.809 -1207.715 0.000 2458.789 -2593.164 -99.414 -2449.805 2031.543 0.000 -132.910 2325.000 -2429.492 1861.230 -229.395 -2492.969 3104.785 1303.125 714.160 -1014.648 528.125 2603.906 1394.238 0.000 0.000 -50.000
-1079.102 435.547 -2888.867 85.449 1794.824 2082.324 3116.309 -3118.652 269.238 -315.332 352.148 -1202.051 0.000 2469.727 -2590.039 -101.367 -2444.922 2045.898 0.000 -122.852 2328.516 -2424.902 1871.680 -203.613 -2484.277 3112.012 1315.430 557.910 -1002.637 625.195 2551.367 1365.039 0.000 0.000 -50.000
-1085.352 426.270 -2891.309 87.793 1790.137 2073.828 3118.848 -3116.504 271.484 -322.168 348.340 -1197.266 0.000 2479.883 -2588.965 -108.203 -2442.090 2061.035 0.000 -114.453 2329.590 -2423.145 1883.594 -176.855 -2477.148 3115.918 1327.734 445.996 -991.797 723.145 2510.059 1341.797 0.000 0.000 -50.000
-1093.262 417.969 -2894.238 88.086 1784.766 2062.207 3114.355 -3115.332 269.629 -328.516 342.285 -1194.824 0.000 2487.988 -2588.965 -118.262 -2442.188 2077.441 0.000 -109.082 2328.320 -2422.656 1891.797 -151.074 -2473.340 3118.359 1337.695 357.617 -982.129 837.695 2469.727 1328.613 0.000 0.000 -50.000
-1097.559 410.352 -2897.754 87.500 1783.984 2056.641 3111.328 -3114.551 271.484 -333.105 337.500 -1193.457 0.000 2490.625 -2590.430 -126.953 -2442.871 2088.672 0.000 -106.250 2326.074 -2418.262 1897.852 -129.395 -2471.191 3120.215 1341.211 284.180 -977.930 943.164 2431.055 1317.969 0.000 0.000 -50.000
-1095.605 408.984 -2896.973 87.207 1783.496 2057.227 3111.621 -3114.160 271.973 -331.934 335.938 -1191.602 0.000 2490.137 -2590.332 -136.719 -2440.430 2098.926 0.000 -105.078 2326.172 -2416.016 1897.363 -115.723 -2472.559 3121.582 1341.992 215.430 -978.027 1026.953 2409.375 1301.367 0.000 0.000 -50.000
-1092.773 411.816 -2894.922 88.477 1786.133 2062.793 3113.184 -3115.234 272.754 -328.418 338.867 -1193.164 0.000 2486.230 -2590.039 -144.434 -2441.602 2105.469 0.000 -110.156 2327.441 -2413.867 1893.555 -109.375 -2475.781 3119.531 1336.230 123.828 -983.789 1136.816 2409.082 1281.543 0.000 0.000 -50.000
-1082.813 422.168 -2887.402 92.383 1794.824 2077.148 3119.824 -3112.109 274.609 -320.020 345.703 -1192.090 0.000 2479.980 -2585.547 -147.754 -2437.305 2113.770 0.000 -112.793 2330.371 -2408.105 1887.402 -101.270 -2478.809 3121.484 1331.738 13.477 -989.063 1182.422 2408.008 1259.961 0.000 0.000 -50.000
-1072.168 434.082 -2878.320 94.727 1804.590 2091.504 3126.270 -3109.473 277.832 -307.227 353.125 -1190.039 0.000 2476.074 -2580.371 -147.461 -2434.863 2123.145 0.000 -114.355 2334.961 -2399.707 1882.227 -93.848 -2481.738 3122.949 1326.367 -72.266 -994.238 1199.512 2401.660 1227.246 0.000 0.000 -50.000
-1066.309 439.746 -2874.902 95.508 1808.691 2100.000 3128.125 -3108.594 278.809 -300.977 356.055 -1188.672 0.000 2472.363 -2578.906 -148.340 -2431.934 2135.547 0.000 -117.188 2337.598 -2394.824 1878.516 -76.855 -2484.473 3121.777 1321.484 -114.941 -998.633 1214.551 2404.199 1192.871 0.000 0.000 -50.000
-1069.824 437.305 -2877.148 94.141 1806.152 2095.801 3123.926 -3111.426 276.855 -303.320 352.637 -1191.895 0.000 2471.094 -2582.031 -150.684 -2435.645 2148.438 0.000 -119.141 2334.473 -2394.531 1877.637 -47.656 -2486.230 3122.266 1320.215 -112.109 -999.219 1238.672 2414.844 1167.090 0.000 0.000 -50.000
-1079.102 428.125 -2884.570 89.551 1798.047 2084.668 3117.188 -3115.625 271.191 -314.355 341.895 -1194.434 0.000 2468.750 -2587.891 -155.566 -2441.211 2163.477 0.000 -120.508 2328.320 -2400.195 1877.734 -9.863 -2488.770 3117.578 1321.582 -70.605 -1000.000 1269.531 2434.277 1150.879 0.000 0.000 -50.000
-1093.555 413.281 -2896.191 81.836 1787.305 2068.262 3106.738 -3121.973 264.746 -328.809 328.906 -1199.023 0.000 2469.238 -2594.727 -164.258 -2448.633 2180.469 0.000 -119.727 2320.898 -2403.027 1879.004 32.324 -2491.699 3113.965 1321.875 -6.934 -997.363 1297.461 2460.352 1139.160 0.000 0.000 -50.000
-1107.813 398.535 -2906.836 76.074 1773.047 2050.977 3094.141 -3127.051 259.180 -342.285 313.770 -1203.418 0.000 2471.387 -2603.125 -175.391 -2453.418 2197.070 0.000 -119.043 2314.258 -2406.543 1881.836 76.855 -2494.043 3108.594 1325.195 61.719 -995.410 1312.695 2491.113 1128.418 0.000 0.000 -50.000
-1120.020 388.086 -2915.332 70.313 1765.723 2036.719 3087.305 -3132.813 254.199 -353.711 302.246 -1209.375 0.000 2469.727 -2609.473 -183.398 -2460.547 2214.844 0.000 -121.387 2306.055 -2412.500 1881.836 114.551 -2497.461 3104.688 1326.563 128.223 -994.824 1328.125 2512.109 1119.434 0.000 0.000 -50.000
-1123.242 384.180 -2917.969 65.430 1761.133 2031.641 3081.543 -3134.863 248.340 -357.422 296.680 -1212.500 0.000 2467.090 -2614.746 -188.281 -2463.574 2231.348 0.000 -124.219 2302.539 -2417.285 1877.734 141.406 -2502.832 3100.391 1321.875 188.477 -998.828 1343.750 2506.738 1105.762 0.000 0.000 -50.000
-1121.875 384.473 -2918.945 64.355 1761.328 2035.449 3080.566 -3138.281 247.559 -356.738 294.727 -1215.039 0.000 2459.473 -2615.820 -188.574 -2467.090 2247.852 0.000 -129.492 2299.707 -2417.578 1872.656 163.965 -2508.203 3095.898 1314.746 241.309 -1006.348 1355.371 2479.492 1085.352 0.000 0.000 -50.000
-1117.578 391.992 -2917.285 62.402 1764.844 2041.797 3080.957 -3142.188 244.238 -351.270 293.848 -1217.969 0.000 2450.781 -2616.602 -188.184 -2468.066 2258.887 0.000 -136.914 2299.512 -2416.016 1862.598 179.395 -2514.648 3092.578 1306.055 303.809 -1014.453 1362.988 2448.730 1055.859 0.000 0.000 -50.000
-1112.500 399.609 -2914.551 60.547 1768.555 2051.367 3080.859 -3143.164 242.676 -344.434 294.727 -1222.070 0.000 2439.551 -2616.113 -184.863 -2471.191 2267.578 0.000 -146.289 2300.195 -2417.383 1850.195 199.414 -2524.219 3088.477 1293.164 379.785 -1025.879 1377.441 2412.891 1016.113 0.000 0.000 -50.000
-1112.109 400.781 -2915.234 56.250 1767.285 2054.395 3076.758 -3149.121 238.477 -343.848 288.867 -1227.051 0.000 2428.613 -2619.434 -186.816 -2474.902 2272.363 0.000 -156.348 2295.996 -2420.605 1839.453 229.980 -2533.887 3081.934 1279.785 527.734 -1037.793 1395.215 2365.918 977.539 0.000 0.000 -50.000
-1127.637 386.133 -2929.688 41.113 1752.246 2041.211 3062.500 -3165.137 222.852 -359.668 270.020 -1244.238 0.000 2412.207 -2634.473 -201.660 -2492.383 2267.188 0.000 -171.875 2279.980 -2437.988 1822.656 245.313 -2549.121 3067.188 1263.086 981.543 -1052.344 1392.969 2323.438 934.961 0.000 0.000 -50.000
-1193.555 320.703 -2994.824 -20.215 1687.793 1972.656 2998.828 3173.340 162.207 -423.438 201.465 -1303.418 0.000 2355.469 -2695.117 -270.117 -2552.539 2217.188 0.000 -228.711 2218.652 -2502.637 1765.820 209.668 -2608.203 3005.664 1206.836 2733.984 -1108.984 1337.891 2273.828 859.766 0.000 0.000 -50.000
-1275.586 239.551 -3073.047 -94.043 1610.352 1887.695 2921.777 3100.000 86.621 -504.785 118.164 -1376.367 0.000 2287.793 -2769.336 -353.418 -2626.465 2157.324 0.000 -296.484 2142.969 -2579.785 1700.293 170.508 -2679.688 2932.324 1140.039 -1592.578 -1176.660 1280.273 2239.258 783.691 0.000 0.000 -50.000
-1293.555 218.750 -3085.742 -105.664 1595.410 1867.578 2907.813 3092.090 79.395 -523.926 98.242 -1384.277 0.000 2284.082 -2779.980 -375.000 -2636.621 2159.180 0.000 -299.902 2131.641 -2592.969 1699.219 226.465 -2684.863 2923.340 1138.965 -1418.262 -1176.758 1286.523 2261.621 787.988 0.000 0.000 -50.000
-1304.199 209.961 -3094.531 -109.473 1586.914 1854.004 2901.172 3088.965 75.195 -534.180 84.375 -1387.598 0.000 2284.668 -2784.766 -387.500 -2643.066 2165.430 0.000 -300.879 2125.195 -2601.758 1702.246 306.055 -2686.914 2920.898 1141.797 -1402.246 -1175.586 1283.984 2277.246 804.688 0.000 0.000 -50.000
-1312.695 201.367 -3102.832 -115.234 1578.125 1845.313 2894.043 3082.422 68.262 -542.969 71.484 -1394.141 0.000 2277.344 -2791.309 -398.926 -2650.195 2164.648 0.000 -306.738 2117.676 -2609.570 1695.898 401.855 -2693.457 2913.672 1137.207 -1359.180 -1180.664 1297.461 2289.453 821.973 0.000 0.000 -50.000
-1317.188 198.242 -3107.422 -122.266 1573.145 1841.699 2888.574 3073.730 61.035 -548.340 60.938 -1401.465 0.000 2268.457 -2796.289 -405.664 -2656.641 2163.281 0.000 -315.625 2111.035 -2616.992 1684.668 520.117 -2702.344 2905.371 1125.684 -1357.324 -1189.746 1311.621 2306.250 843.457 0.000 0.000 -50.000
-1319.141 197.852 -3111.133 -129.004 1572.266 1843.945 2883.008 3067.578 55.664 -547.852 50.293 -1411.328 0.000 2254.297 -2801.758 -407.910 -2663.867 2156.445 0.000 -327.246 2105.664 -2626.172 1669.922 664.746 -2715.527 2896.875 1111.328 -1337.793 -1203.613 1293.945 2305.566 873.242 0.000 0.000 -50.000
-1319.824 198.242 -3113.477 -136.914 1569.141 1846.875 2878.613 3058.008 47.949 -547.461 40.625 -1420.020 0.000 2237.012 -2807.520 -408.789 -2671.582 2146.680 0.000 -341.992 2097.852 -2634.863 1653.125 830.469 -2728.516 2885.938 1093.066 -1316.699 -1221.875 1257.031 2304.199 925.098 0.000 0.000 -50.000
-1325.586 193.457 -3122.168 -148.145 1560.742 1843.066 2867.578 3047.363 37.109 -553.711 24.512 -1433.691 0.000 2218.066 -2817.578 -415.234 -2685.742 2133.398 0.000 -358.105 2087.109 -2647.266 1633.691 1043.652 -2746.191 2871.680 1072.949 -1329.883 -1239.551 1224.707 2333.203 1031.152 0.000 0.000 -50.000
-1347.559 171.094 -3145.898 -172.559 1541.016 1823.242 2844.727 3021.875 15.234 -575.391 -6.543 -1459.082 0.000 2192.676 -2840.137 -438.672 -2709.082 2106.348 0.000 -382.910 2063.086 -2673.047 1607.422 1440.527 -2772.168 2846.191 1045.410 -1372.363 -1266.211 1195.996 2503.613 1143.555 0.000 0.000 -50.000
-1393.262 126.758 -3188.574 -213.379 1497.070 1776.270 2800.977 2980.664 -25.684 -620.508 -60.449 -1499.121 0.000 2153.125 -2882.129 -483.789 -2749.707 2063.867 0.000 -421.191 2019.434 -2715.625 1570.801 2274.902 -2812.012 2806.152 1008.203 -1448.828 -1301.563 1154.297 2858.789 1124.609 0.000 0.000 -50.000
-1434.863 84.180 3171.875 -248.242 1458.008 1731.934 2762.793 2947.656 -59.375 -661.523 -113.184 -1532.324 0.000 2123.730 -2916.895 -523.535 -2783.203 2030.273 0.000 -448.535 1984.668 -2752.051 1545.215 2863.574 -2843.262 2772.461 982.617 -1546.680 -1328.613 1129.590 -3108.691 1112.988 0.000 0.000 -50.000
-1452.148 63.867 3158.301 -257.422 1442.090 1711.230 2750.293 2939.160 -68.555 -680.078 -139.551 -1540.625 0.000 2122.266 -2926.563 -539.355 -2791.699 2019.141 0.000 -448.730 1975.098 -2762.305 1545.117 2782.227 -2848.145 2764.648 984.668 -1625.488 -1329.980 1144.629 -2723.633 1131.738 0.000 0.000 -50.000
-1473.047 44.922 3142.188 -270.996 1423.828 1687.891 2731.738 2926.465 -79.590 -700.488 -146.387 -1552.344 0.000 2113.574 -2941.016 -560.254 -2801.563 2001.367 0.000 -454.980 1963.477 -2775.781 1543.945 2740.039 -2856.055 2753.223 980.957 -1633.008 -1335.254 1158.008 -2386.523 1156.348 0.000 0.000 -50.000
-1483.691 33.496 3132.324 -277.637 1416.797 1677.148 2723.730 2919.922 -87.500 -709.961 -149.121 -1558.984 0.000 2106.348 -2948.340 -571.582 -2811.133 1987.207 0.000 -458.887 1955.273 -2786.621 1536.230 2711.328 -2861.816 2747.461 978.906 -1569.434 -1339.258 1158.594 -2258.496 1187.891 0.000 0.000 -50.000
-1485.840 32.813 3128.809 -281.836 1412.695 1674.902 2718.750 2914.844 -91.699 -713.281 -148.535 -1562.891 0.000 2100.781 -2953.320 -579.199 -2817.188 1966.113 0.000 -467.285 1951.270 -2791.602 1527.246 2687.207 -2871.680 2739.551 967.090 -1480.273 -1346.582 1154.785 -2190.723 1205.176 0.000 0.000 -50.000
-1483.105 34.473 3129.785 -283.203 1415.625 1678.711 2717.188 2912.988 -95.313 -709.570 -144.629 -1568.652 0.000 2091.602 -2954.980 -579.980 -2817.383 1945.410 0.000 -473.340 1952.344 -2792.578 1520.801 2708.398 -2876.758 2736.816 956.836 -1449.219 -1354.883 1147.754 -2183.203 1218.555 0.000 0.000 -50.000
-1475.195 43.262 3132.813 -284.863 1419.629 1689.941 2719.141 2910.938 -96.777 -701.660 -138.184 -1571.680 0.000 2082.910 -2953.418 -578.027 -2818.945 1918.262 0.000 -480.078 1952.832 -2792.773 1511.914 2753.027 -2881.445 2734.277 946.484 -1455.762 -1361.523 1128.906 -2190.820 1236.914 0.000 0.000 -50.000
-1464.844 54.102 3139.453 -281.445 1426.172 1701.855 2723.145 2912.598 -93.945 -691.406 -127.637 -1570.215 0.000 2077.734 -2949.316 -571.680 -2819.629 1893.164 0.000 -484.668 1955.078 -2793.066 1505.469 2746.484 -2884.277 2733.789 938.867 -1433.105 -1366.797 1107.813 -2220.898 1237.598 0.000 0.000 -50.000
-1457.422 63.477 3147.754 -274.902 1435.059 1710.938 2729.980 2918.848 -87.305 -682.520 -117.090 -1565.625 0.000 2078.027 -2943.652 -564.063 -2815.625 1886.035 0.000 -483.105 1960.742 -2788.867 1504.785 2730.078 -2883.789 2736.035 937.598 -1486.230 -1366.309 1103.613 -2256.250 1229.980 0.000 0.000 -50.000
-1455.664 64.258 3149.805 -271.289 1437.207 1711.523 2732.031 2921.289 -84.180 -681.641 -113.477 -1563.477 0.000 2080.957 -2941.504 -563.770 -2811.133 1906.836 0.000 -479.395 1964.746 -2786.230 1508.887 2704.297 -2880.469 2740.430 940.527 -1512.305 -1362.012 1104.297 -2274.316 1213.867 0.000 0.000 -50.000
-1466.602 54.199 3142.480 -275.391 1430.176 1700.098 2725.000 2917.285 -88.184 -691.797 -122.070 -1568.457 0.000 2081.055 -2946.680 -575.684 -2811.621 1951.270 0.000 -474.805 1961.328 -2788.379 1513.379 2715.137 -2878.418 2738.867 944.141 -1443.848 -1357.520 1109.570 -2287.891 1193.848 0.000 0.000 -50.000
-1474.805 45.508 3135.449 -276.855 1422.559 1689.746 2720.020 2916.016 -89.648 -701.563 -127.832 -1567.090 0.000 2085.352 -2949.316 -583.398 -2813.281 1978.516 0.000 -472.363 1958.398 -2790.234 1518.066 2753.027 -2876.172 2740.527 953.418 -1455.664 -1350.195 1130.371 -2295.508 1177.344 0.000 0.000 -50.000
-1477.441 39.941 3136.523 -273.242 1421.875 1684.863 2720.215 2920.801 -84.082 -704.980 -128.418 -1563.086 0.000 2091.895 -2947.461 -586.523 -2815.430 1947.656 0.000 -468.359 1955.859 -2791.895 1524.023 2757.422 -2872.363 2744.238 960.156 -1508.203 -1343.262 1164.453 -2275.879 1170.996 0.000 0.000 -50.000
-1479.395 38.184 3136.523 -272.070 1422.168 1680.957 2718.848 2922.559 -84.473 -704.980 -129.785 -1560.254 0.000 2095.215 -2949.121 -590.332 -2817.676 1876.367 0.000 -467.773 1954.980 -2794.531 1525.977 2772.461 -2871.582 2742.188 959.961 -1462.598 -1342.480 1181.348 -2260.742 1160.059 0.000 0.000 -50.000
-1480.371 38.574 3135.449 -273.340 1420.996 1680.273 2717.285 2920.898 -84.961 -703.320 -131.152 -1561.230 0.000 2091.602 -2949.902 -590.918 -2816.211 1801.855 0.000 -469.434 1955.469 -2794.531 1526.172 2754.492 -2874.609 2740.137 957.715 -1367.871 -1343.555 1177.930 -2229.004 1152.051 0.000 0.000 -50.000
-1480.078 38.184 3133.203 -277.051 1421.484 1682.324 2716.211 2916.895 -87.988 -703.613 -132.520 -1566.895 0.000 2082.129 -2954.492 -592.480 -2817.578 1742.969 0.000 -471.777 1956.641 -2794.043 1521.484 2764.941 -2879.980 2737.305 951.270 -1286.133 -1349.707 1166.895 -2171.387 1134.082 0.000 0.000 -50.000
-1486.914 34.180 3124.707 -290.332 1412.012 1678.906 2704.980 2902.148 -102.930 -709.961 -143.066 -1583.203 0.000 2061.719 -2966.797 -602.051 -2828.906 1684.863 0.000 -489.355 1945.996 -2806.543 1502.344 2985.254 -2896.289 2724.121 930.371 -1223.730 -1367.969 1154.590 -2039.648 1091.699 0.000 0.000 -50.000
-1474.414 47.754 3134.375 -284.863 1422.852 1693.066 2713.281 2904.980 -98.633 -698.730 -133.398 -1580.859 0.000 2059.082 -2961.035 -591.309 -2829.688 1653.418 0.000 -492.480 1949.609 -2803.027 1493.945 2815.039 -2895.801 2727.246 925.000 -1199.121 -1371.094 1184.863 -1966.992 1057.031 0.000 0.000 -50.000
-1462.500 59.375 3143.359 -277.734 1433.789 1707.617 2722.363 2911.914 -92.090 -686.426 -124.023 -1575.391 0.000 2062.305 -2951.563 -577.637 -2823.535 1640.332 0.000 -490.723 1955.957 -2796.875 1494.824 2523.633 -2892.773 2731.641 922.949 -1118.945 -1367.773 1236.719 -1939.551 1031.055 0.000 0.000 -50.000
-1470.117 52.441 3137.109 -284.570 1427.148 1700.098 2714.551 2907.520 -98.340 -694.141 -132.715 -1581.250 0.000 2055.078 -2959.570 -586.523 -2829.785 1623.340 0.000 -498.438 1946.289 -2805.469 1487.012 2748.730 -2901.465 2721.484 916.895 -1075.977 -1377.051 1230.859 -1964.258 991.699 0.000 0.000 -50.000
-1478.320 43.848 3130.957 -287.207 1420.215 1690.625 2710.156 2904.297 -100.879 -700.586 -141.699 -1583.984 0.000 2054.883 -2964.941 -593.359 -2836.230 1609.375 0.000 -499.121 1939.160 -2808.594 1487.109 2772.266 -2905.957 2717.480 918.750 -959.082 -1377.637 1233.691 -1946.191 951.270 0.000 0.000 -50.000
-1483.691 38.574 3129.199 -284.668 1416.504 1682.324 2709.668 2907.422 -98.047 -704.492 -146.289 -1579.102 0.000 2062.598 -2965.234 -594.434 -2832.617 1599.609 0.000 -491.406 1939.648 -2805.469 1499.121 2731.250 -2900.293 2720.215 930.664 -789.551 -1368.848 1250.098 -2111.230 938.770 0.000 0.000 -50.000
-1429.590 90.430 3187.207 -223.730 1473.535 1734.180 2767.773 2969.043 -35.645 -650.879 -91.016 -1516.699 0.000 2127.051 -2904.492 -538.672 -2768.457 1688.086 0.000 -421.094 1999.609 -2743.555 1571.680 2809.473 -2833.691 2785.742 1005.957 -754.102 -1298.145 1340.332 2463.184 996.289 0.000 0.000 -50.000
-1427.832 92.090 3190.039 -217.773 1475.879 1733.008 2771.777 2975.684 -29.395 -650.391 -90.430 -1510.840 0.000 2135.449 -2900.000 -536.621 -2760.059 1732.813 0.000 -411.523 2004.492 -2738.379 1583.594 2851.172 -2824.219 2795.410 1019.727 -791.211 -1286.621 1386.230 2232.715 995.508 0.000 0.000 -50.000
-1431.152 86.719 3185.156 -224.707 1471.094 1728.809 2765.723 2970.898 -35.840 -655.273 -97.070 -1515.527 0.000 2128.320 -2906.738 -540.625 -2767.773 1703.320 0.000 -418.262 1993.652 -2744.727 1577.051 2887.793 -2829.883 2788.867 1011.719 -896.680 -1293.066 1393.164 2479.688 985.547 0.000 0.000 -50.000
-1427.148 91.699 3187.109 -227.344 1473.242 1735.938 2767.188 2968.262 -36.426 -649.512 -96.191 -1516.895 0.000 2124.219 -2905.371 -537.500 -2771.094 1668.066 0.000 -426.172 1988.281 -2748.242 1567.480 2929.004 -2834.277 2785.449 1007.715 -1183.301 -1299.316 1354.492 2833.984 976.953 0.000 0.000 -50.000
-1421.875 98.145 3189.453 -230.078 1475.195 1743.359 2766.797 2965.430 -39.844 -644.727 -95.703 -1523.926 0.000 2116.895 -2908.203 -534.863 -2777.051 1646.973 0.000 -436.523 1982.910 -2751.270 1554.590 2919.824 -2844.141 2778.516 987.500 -1262.500 -1310.938 1252.734 3139.648 963.867 0.000 0.000 -50.000
-1415.137 107.422 3193.750 -228.613 1480.469 1754.102 2769.727 2963.379 -40.039 -636.328 -92.871 -1525.684 0.000 2109.375 -2906.055 -528.418 -2778.711 1631.641 0.000 -439.258 1987.207 -2750.000 1546.094 2890.625 -2848.926 2776.270 975.098 -1258.594 -1317.676 1185.547 -3148.633 944.629 0.000 0.000 -50.000
-1410.742 111.035 3195.313 -230.469 1482.617 1759.961 2769.922 2961.523 -41.211 -630.371 -91.992 -1528.320 0.000 2103.418 -2905.566 -526.465 -2776.855 1622.754 0.000 -439.063 1992.285 -2747.266 1541.113 2851.270 -2850.098 2775.879 970.605 -1146.777 -1322.168 1148.926 -3163.379 924.219 0.000 0.000 -50.000
-1407.617 112.402 3196.484 -229.492 1484.766 1761.230 2771.289 2962.988 -38.965 -630.566 -91.406 -1526.660 0.000 2104.492 -2904.883 -524.219 -2771.973 1621.777 0.000 -434.961 1997.266 -2742.285 1546.777 2848.926 -2847.754 2779.785 972.949 -1061.914 -1317.383 1057.715 -3193.750 905.176 0.000 0.000 -50.000
-1464.258 55.176 3141.602 -282.617 1428.809 1702.051 2715.234 2910.059 -94.141 -688.965 -149.805 -1578.809 0.000 2054.199 -2958.887 -581.250 -2828.223 1562.109 0.000 -486.133 1941.699 -2797.168 1497.363 -1881.934 -2899.121 2725.781 923.047 -1072.168 -1367.480 899.902 3140.625 833.887 0.000 0.000 -50.000
-1287.402 231.152 -3078.223 -97.070 1606.250 1879.395 2896.680 3095.117 92.676 -510.059 29.980 -1393.652 0.000 2241.992 -2776.270 -400.488 -2650.293 1735.156 0.000 -303.027 2116.797 -2623.145 1681.738 180.469 -2712.109 2911.523 1112.207 -902.930 -1179.395 171.191 -3068.750 1001.074 0.000 0.000 -50.000
-1258.594 258.789 -3047.070 -62.891 1637.207 1904.395 2929.199 3131.250 128.711 -482.129 59.863 -1354.688 0.000 2279.980 -2742.188 -370.703 -2614.941 1769.238 0.000 -262.109 2150.391 -2591.992 1724.609 -259.180 -2676.074 2947.363 1152.441 -828.809 -1139.258 -382.715 -3024.902 1025.098 0.000 0.000 -50.000
-1282.129 233.887 -3069.434 -81.152 1616.211 1878.711 2907.910 3115.332 110.059 -505.957 35.645 -1372.949 0.000 2263.965 -2762.793 -395.020 -2633.496 1747.754 0.000 -275.879 2129.297 -2611.816 1712.207 -226.367 -2693.652 2928.320 1141.992 -811.035 -1155.469 87.793 -3040.137 1008.594 0.000 0.000 -50.000
-1293.652 219.434 -3083.691 -95.117 1602.344 1864.355 2895.313 3102.344 96.680 -518.652 17.871 -1386.816 0.000 2249.902 -2778.223 -407.324 -2648.730 1730.859 0.000 -290.234 2116.797 -2628.516 1699.121 -164.844 -2707.227 2912.695 1128.418 -551.172 -1170.313 133.398 -3061.035 1016.211 0.000 0.000 -50.000
-1272.852 241.113 -3060.840 -76.953 1622.266 1887.695 2914.844 3119.531 116.016 -497.266 38.086 -1368.457 0.000 2266.309 -2758.691 -384.863 -2629.883 1746.973 0.000 -272.070 2136.914 -2610.938 1715.625 29.785 -2691.113 2931.152 1142.383 -1138.477 -1153.809 7.813 -3050.781 1050.488 0.000 0.000 -50.000
-1112.207 403.516 -2904.297 78.809 1780.957 2051.367 3071.191 -3125.977 271.094 -334.863 196.582 -1215.430 0.000 2415.723 -2601.758 -223.340 -2475.879 1889.258 0.000 -117.383 2293.457 -2452.539 1864.746 420.996 -2539.844 3084.473 1291.016 597.363 -1003.809 98.340 -2906.152 1204.785 0.000 0.000 -50.000
-1071.289 444.922 -2867.676 111.035 1818.555 2093.164 3106.836 -3093.555 302.734 -293.262 231.934 -1184.082 0.000 2445.117 -2566.895 -183.594 -2441.504 1900.977 0.000 -88.281 2327.930 -2415.723 1881.152 615.039 -2509.375 3116.602 1313.770 -446.680 -977.539 99.316 -2888.379 1218.750 0.000 0.000 -50.000
-1070.508 445.996 -2868.848 106.934 1819.043 2097.559 3104.004 -3099.805 299.023 -292.773 228.613 -1191.699 0.000 2437.305 -2570.117 -178.809 -2446.680 1896.680 0.000 -95.410 2325.293 -2420.117 1871.582 677.441 -2516.113 3112.207 1300.586 -348.145 -985.547 75.977 -2904.590 1191.113 0.000 0.000 -50.000
-1072.656 443.750 -2872.363 101.270 1816.113 2094.336 3099.805 -3104.590 293.457 -295.508 225.879 -1195.313 0.000 2431.836 -2574.316 -180.566 -2450.098 1871.582 0.000 -98.340 2321.094 -2425.781 1870.117 693.262 -2520.605 3107.520 1297.070 -193.848 -990.918 63.281 -2912.598 1157.227 0.000 0.000 -50.000
-1080.273 433.984 -2880.273 95.313 1808.496 2085.254 3093.066 -3108.789 288.477 -304.004 216.016 -1199.805 0.000 2427.148 -2581.055 -187.012 -2456.738 1833.984 0.000 -100.586 2314.063 -2434.180 1870.996 673.340 -2526.563 3101.758 1296.777 38.379 -993.848 59.668 -2914.844 1131.250 0.000 0.000 -50.000
-1081.152 432.031 -2875.781 100.781 1809.180 2082.324 3095.703 -3099.512 295.508 -304.883 216.797 -1191.992 0.000 2437.598 -2575.781 -185.254 -2452.930 1837.207 0.000 -91.113 2318.848 -2437.109 1884.570 638.867 -2519.141 3106.836 1305.078 -50.684 -984.766 73.535 -2904.492 1119.922 0.000 0.000 -50.000
-1100.586 410.059 -2892.969 88.086 1791.504 2058.105 3080.566 -3110.547 282.031 -324.219 199.316 -1201.758 0.000 2429.883 -2591.504 -202.930 -2466.309 1837.109 0.000 -100.000 2302.441 -2455.957 1880.859 571.094 -2530.664 3092.480 1301.953 387.402 -994.141 69.824 -2912.695 1101.660 0.000 0.000 -50.000
-1167.676 342.188 -2958.301 25.000 1726.074 1987.988 3017.676 -3170.703 220.605 -393.945 130.371 -1261.230 0.000 2370.996 -2655.664 -270.996 -2529.785 1790.527 0.000 -156.445 2239.258 -2519.629 1822.266 480.762 -2592.676 3031.641 1243.457 2209.863 -1052.246 13.672 -2973.438 1050.586 0.000 0.000 -50.000
-1206.348 304.004 -2995.605 -12.305 1686.621 1947.363 2980.566 3192.871 183.984 -432.227 89.746 -1299.707 0.000 2333.496 -2693.262 -309.863 -2566.602 1758.984 0.000 -192.871 2202.148 -2563.770 1787.305 427.539 -2630.078 2993.555 1203.613 -3135.449 -1087.793 -22.266 -3012.598 1069.141 0.000 0.000 -50.000
-1229.785 278.027 -3020.996 -38.281 1661.523 1924.023 2954.688 3166.699 157.324 -457.324 64.258 -1326.855 0.000 2306.348 -2719.336 -336.621 -2593.652 1741.211 0.000 -219.824 2176.563 -2595.020 1756.055 385.352 -2656.836 2965.918 1175.781 -2927.441 -1115.332 -52.344 -3042.773 1619.043 0.000 0.000 -50.000
-1184.375 322.852 -2980.469 0.684 1703.809 1969.531 2994.727 -3194.824 195.020 -411.914 104.395 -1289.258 0.000 2342.480 -2678.125 -294.141 -2554.395 1774.609 0.000 -181.445 2218.652 -2556.445 1788.379 408.594 -2620.215 3004.492 1212.695 -2895.605 -1079.590 -21.973 -3012.207 514.453 0.000 0.000 -50.000
-1175.684 334.180 -2974.121 2.441 1710.449 1982.031 2998.340 -3195.020 197.754 -403.320 109.473 -1291.406 0.000 2339.746 -2673.828 -285.156 -2552.441 1776.465 0.000 -182.031 2225.977 -2554.883 1781.250 393.262 -2621.094 3007.520 1203.320 -2923.145 -1081.250 -32.227 -3024.316 508.203 0.000 0.000 -50.000
-1174.707 336.328 -2975.879 -2.734 1709.863 1984.766 2995.605 -3199.902 192.676 -402.930 107.324 -1298.047 0.000 2330.273 -2677.441 -285.156 -2555.664 1772.949 0.000 -188.770 2225.488 -2560.840 1770.020 375.293 -2627.246 3002.344 1191.113 -2949.902 -1088.574 -47.559 -3042.871 684.668 0.000 0.000 -50.000
-1175.195 334.180 -2981.152 -8.105 1708.008 1981.445 2991.016 3192.773 186.133 -403.711 103.223 -1304.395 0.000 2321.973 -2681.152 -288.086 -2560.938 1771.094 0.000 -195.020 2223.340 -2566.895 1762.207 362.402 -2633.594 2997.168 1183.594 -2971.777 -1096.094 -56.738 -3054.980 859.375 0.000 0.000 -50.000
-1203.320 308.105 -3004.492 -32.910 1682.324 1956.445 2966.406 3170.020 163.281 -430.176 76.172 -1328.320 0.000 2300.000 -2706.543 -313.574 -2588.184 1754.297 0.000 -215.137 2199.121 -2594.922 1739.551 340.039 -2657.422 2973.828 1158.203 -3003.320 -1118.945 -74.902 -3078.320 1562.793 0.000 0.000 -50.000
-1244.629 265.430 -3044.238 -70.508 1641.211 1910.840 2927.344 3135.352 124.316 -472.559 35.156 -1362.891 0.000 2266.016 -2745.313 -355.859 -2626.367 1726.855 0.000 -247.363 2160.156 -2635.840 1706.543 308.301 -2695.410 2935.254 1120.801 -3043.555 -1154.004 -104.883 -3110.156 2650.098 0.000 0.000 -50.000
-1274.609 232.324 -3069.922 -91.895 1614.551 1879.102 2900.293 3114.551 102.051 -503.320 7.422 -1384.473 0.000 2247.363 -2770.215 -383.691 -2650.391 1709.277 0.000 -265.332 2133.301 -2663.770 1692.285 298.633 -2717.871 2913.184 1123.535 -3062.500 -1172.363 -117.383 -3123.438 -3116.406 0.000 0.000 -50.000
-1285.352 219.922 -3079.395 -97.559 1603.516 1863.672 2891.797 3110.352 96.094 -515.137 -5.176 -1389.844 0.000 2246.777 -2778.320 -393.945 -2656.836 1705.664 0.000 -266.504 2123.633 -2674.414 1691.406 302.051 -2723.145 2907.715 1115.234 -3068.359 -1174.023 -115.430 -3121.191 -2933.105 0.000 0.000 -50.000
-1287.012 216.113 -3080.371 -97.559 1601.660 1860.059 2892.090 3111.523 96.289 -515.723 -7.617 -1388.965 0.000 2248.047 -2779.688 -395.410 -2656.934 1702.344 0.000 -263.965 2122.461 -2676.563 1693.652 305.566 -2720.996 2908.398 1112.793 -3070.605 -1172.070 -113.477 -3118.848 -2924.707 0.000 0.000 -50.000
-1285.352 218.848 -3078.613 -96.094 1603.516 1863.281 2894.434 3112.988 96.680 -515.137 -7.031 -1388.574 0.000 2248.633 -2776.465 -391.797 -2655.176 1702.441 0.000 -261.719 2125.586 -2674.707 1692.285 304.102 -2721.191 2909.766 1112.207 -3078.516 -1171.289 -115.137 -3120.898 -2946.777 0.000 0.000 -50.000
-1277.441 226.660 -3073.926 -93.848 1607.715 1871.289 2895.703 3112.988 99.121 -508.203 -1.953 -1386.816 0.000 2247.754 -2773.633 -384.961 -2653.027 1697.656 0.000 -260.254 2129.688 -2671.484 1689.648 296.582 -2720.508 2911.035 1105.664 -3090.234 -1172.168 -121.777 -3127.539 -2973.438 0.000 0.000 -50.000
-1266.699 236.133 -3069.141 -91.895 1617.383 1882.813 2900.977 3112.598 100.781 -500.000 2.734 -1387.012 0.000 2245.605 -2770.313 -374.805 -2651.660 1697.754 0.000 -261.133 2135.547 -2666.699 1683.691 285.352 -2718.945 2913.867 1093.945 -3104.004 -1173.730 -131.250 -3138.672 -3002.930 0.000 0.000 -50.000
-1257.813 246.484 -3061.816 -90.039 1623.340 1894.434 2904.102 3111.914 103.125 -491.211 7.129 -1388.281 0.000 2243.945 -2763.770 -366.406 -2649.609 1696.484 0.000 -260.742 2141.016 -2662.793 1679.199 274.414 -2718.945 2915.332 1092.285 -3118.848 -1174.902 -141.113 -3150.000 -3036.816 0.000 0.000 -50.000
-1254.785 251.563 -3059.473 -90.723 1626.074 1899.414 2905.957 3111.621 104.492 -487.012 9.473 -1387.305 0.000 2243.066 -2761.719 -363.477 -2647.656 1695.703 0.000 -261.230 2141.992 -2661.230 1677.344 268.164 -2719.727 2917.090 1106.445 -3127.637 -1177.734 -145.605 -3155.078 -3057.910 0.000 0.000 -50.000
-1254.590 250.000 -3059.766 -90.332 1626.465 1900.391 2904.395 3112.988 104.199 -487.793 8.398 -1388.281 0.000 2243.457 -2762.598 -363.184 -2648.730 1694.238 0.000 -260.352 2140.527 -2661.230 1676.563 269.531 -2720.020 2916.602 1121.680 -3131.543 -1176.172 -145.508 -3152.246 -3066.602 0.000 0.000 -50.000
-1260.156 244.336 -3062.012 -91.309 1622.949 1891.602 2902.441 3113.379 105.859 -492.578 1.855 -1388.086 0.000 2245.898 -2765.625 -366.992 -2650.781 1695.996 0.000 -258.301 2136.328 -2662.891 1681.250 276.953 -2719.629 2915.820 1144.434 -3128.027 -1175.000 -138.770 -3148.340 -3070.313 0.000 0.000 -50.000
-1266.113 237.695 -3064.258 -89.063 1618.066 1882.617 2898.047 3114.941 105.664 -498.926 -2.441 -1385.938 0.000 2249.707 -2767.773 -372.852 -2650.684 1693.457 0.000 -251.367 2133.496 -2666.504 1688.281 290.625 -2720.215 2916.113 1143.750 -3124.023 -1170.898 -131.348 -3138.672 -3071.191 0.000 0.000 -50.000
-1272.461 228.613 -3067.871 -89.746 1613.965 1874.121 2895.801 3116.113 104.102 -507.227 -6.738 -1384.473 0.000 2254.785 -2768.359 -378.613 -2652.734 1691.797 0.000 -248.828 2129.395 -2671.094 1692.969 303.125 -2717.578 2915.820 1144.434 -3116.602 -1165.430 -121.680 -3127.930 -3067.480 0.000 0.000 -50.000
-1275.293 224.902 -3068.164 -90.430 1609.570 1868.848 2896.289 3117.773 104.785 -510.156 -10.742 -1382.813 0.000 2258.594 -2769.727 -381.836 -2654.395 1690.820 0.000 -245.801 2126.758 -2672.754 1695.313 308.691 -2716.309 2914.941 1151.172 -3114.258 -1164.355 -116.602 -3122.852 -3071.387 0.000 0.000 -50.000
-1273.828 225.000 -3067.383 -88.672 1611.816 1868.066 2895.605 3117.188 104.395 -510.254 -10.547 -1382.129 0.000 2258.105 -2768.848 -380.371 -2654.492 1693.750 0.000 -244.434 2129.102 -2671.973 1694.043 308.887 -2715.430 2915.820 1150.879 -3118.262 -1164.746 -116.504 -3124.023 -3080.566 0.000 0.000 -50.000
-1267.969 230.176 -3065.430 -88.184 1614.746 1875.195 2897.559 3117.773 104.980 -504.297 -7.422 -1383.008 0.000 2256.543 -2765.332 -375.293 -2652.930 1698.145 0.000 -244.922 2132.813 -2669.043 1691.113 301.953 -2717.090 2917.480 1141.602 -3126.660 -1165.625 -123.828 -3128.906 -3094.141 0.000 0.000 -50.000
-1261.426 239.355 -3060.352 -86.426 1621.094 1885.938 2899.805 3116.992 106.152 -494.434 -3.320 -1382.910 0.000 2254.785 -2762.988 -369.336 -2651.172 1693.750 0.000 -246.191 2139.063 -2664.355 1685.547 291.602 -2715.820 2918.164 1135.840 -3137.988 -1167.285 -131.641 -3140.723 -3111.035 0.000 0.000 -50.000
-1250.879 248.535 -3054.980 -85.840 1627.637 1899.023 2903.320 3115.527 107.520 -487.012 1.758 -1384.375 0.000 2251.660 -2759.961 -361.328 -2648.145 1687.988 0.000 -248.047 2145.508 -2660.352 1680.176 278.711 -2713.867 2920.117 1132.129 -3151.367 -1169.727 -141.504 -3153.125 -3128.809 0.000 0.000 -50.000
-1245.508 254.980 -3051.367 -84.375 1633.203 1904.102 2905.762 3115.137 108.301 -480.859 4.785 -1384.961 0.000 2249.414 -2757.910 -356.445 -2647.754 1691.504 0.000 -247.266 2150.391 -2655.176 1675.488 270.313 -2715.527 2922.363 1126.172 -3161.230 -1172.168 -147.754 -3160.449 -3142.773 0.000 0.000 -50.000
-1245.313 255.371 -3049.902 -84.668 1634.473 1905.859 2905.957 3114.844 109.375 -480.273 3.809 -1385.449 0.000 2249.023 -2756.641 -353.906 -2647.168 1695.313 0.000 -245.703 2151.660 -2654.492 1674.023 268.750 -2714.063 2922.363 1123.242 -3164.551 -1171.191 -148.535 -3162.207 -3149.707 0.000 0.000 -50.000
-1248.926 249.512 -3051.953 -83.789 1630.078 1898.633 2903.516 3114.746 108.691 -483.594 1.953 -1383.887 0.000 2251.660 -2756.250 -357.031 -2648.535 1705.762 0.000 -245.020 2148.633 -2656.543 1677.246 275.488 -2714.160 2922.363 1121.973 -3162.988 -1169.629 -142.773 -3155.957 -3148.730 0.000 0.000 -50.000
-1255.957 241.504 -3056.152 -81.934 1625.391 1890.332 2900.195 3116.113 108.203 -491.211 -1.270 -1383.594 0.000 2254.004 -2759.082 -362.695 -2650.586 1710.742 0.000 -241.113 2144.238 -2658.203 1681.445 287.402 -2713.281 2920.996 1125.195 -3157.324 -1166.504 -134.570 -3148.535 -3143.262 0.000 0.000 -50.000
-1262.402 233.496 -3060.645 -83.105 1619.922 1880.664 2898.438 3118.262 106.836 -500.098 -6.055 -1381.445 0.000 2259.180 -2761.621 -367.480 -2653.125 1714.063 0.000 -237.793 2139.551 -2661.523 1686.523 299.219 -2714.258 2919.629 1130.176 -3150.879 -1163.965 -125.879 -3137.402 -3137.793 0.000 0.000 -50.000
-1267.090 228.125 -3061.230 -84.082 1616.016 1874.512 2895.898 3117.969 106.250 -504.883 -6.836 -1380.664 0.000 2259.668 -2764.551 -370.117 -2653.418 1713.281 0.000 -235.156 2135.254 -2664.258 1690.820 305.762 -2712.500 2918.848 1135.547 -3147.949 -1161.523 -118.945 -3128.809 -3135.645 0.000 0.000 -50.000
-1267.969 226.270 -3060.938 -83.398 1616.016 1873.340 2895.996 3118.945 106.055 -503.906 -7.813 -1380.566 0.000 2260.449 -2764.355 -369.238 -2655.273 1712.598 0.000 -234.570 2134.570 -2663.770 1692.090 307.227 -2711.523 2917.578 1138.281 -3148.535 -1162.207 -117.090 -3130.176 -3137.695 0.000 0.000 -50.000
-1264.355 230.371 -3058.984 -82.129 1617.188 1878.223 2896.973 3118.652 105.566 -499.609 -4.785 -1380.859 0.000 2260.449 -2762.012 -363.867 -2654.590 1709.180 0.000 -235.742 2137.109 -2659.863 1689.063 301.367 -2711.816 2918.164 1138.770 -3155.664 -1163.379 -120.215 -3135.352 -3147.461 0.000 0.000 -50.000
-1256.445 238.770 -3055.469 -80.859 1623.730 1886.816 2898.438 3117.188 107.129 -493.359 -1.074 -1381.250 0.000 2257.910 -2758.203 -356.738 -2651.660 1703.711 0.000 -236.816 2142.285 -2656.152 1684.766 291.504 -2713.281 2920.020 1134.277 -3167.871 -1164.453 -128.223 -3142.871 -3161.328 0.000 0.000 -50.000
-1248.145 248.926 -3049.414 -79.688 1630.957 1897.949 2900.879 3115.234 108.105 -486.523 2.539 -1379.199 0.000 2255.566 -2754.980 -348.535 -2650.488 1699.512 0.000 -236.426 2149.023 -2650.098 1678.418 279.004 -2712.891 2921.387 1130.078 -3182.715 -1167.383 -137.402 -3156.445 -3177.051 0.000 0.000 -50.000
-1241.504 255.762 -3045.898 -79.688 1636.328 1908.301 2903.418 3115.723 109.863 -480.664 4.590 -1381.055 0.000 2251.953 -2752.930 -340.332 -2647.656 1693.652 0.000 -238.477 2153.125 -2646.289 1673.535 271.094 -2712.793 2923.828 1126.465 -3191.406 -1169.238 -145.508 -3164.063 -3189.844 0.000 0.000 -50.000
-1238.672 256.348 -3045.605 -78.516 1637.891 1911.621 2904.102 3115.332 108.398 -478.418 3.418 -1382.617 0.000 2251.953 -2750.879 -337.305 -2645.996 1691.895 0.000 -239.258 2157.520 -2644.922 1672.168 269.141 -2712.012 2925.488 1122.461 -3195.898 -1169.043 -144.629 -3167.285 -3196.484 0.000 0.000 -50.000
-1242.871 253.027 -3047.559 -77.051 1636.719 1907.715 2902.734 3116.504 108.594 -479.688 -0.488 -1382.422 0.000 2253.906 -2752.441 -339.551 -2648.242 1692.480 0.000 -237.402 2154.980 -2646.484 1674.707 273.730 -2711.621 2925.098 1122.656 -3193.359 -1167.578 -140.430 -3161.035 -3194.238 0.000 0.000 -50.000
-1249.121 245.508 -3050.488 -78.027 1630.859 1897.656 2900.391 3118.262 108.691 -486.230 -4.883 -1381.055 0.000 2257.813 -2754.785 -341.211 -2650.098 1694.336 0.000 -233.887 2151.270 -2650.488 1679.688 282.813 -2711.230 2923.145 1124.023 -3187.793 -1165.527 -130.664 -3152.930 -3185.840 0.000 0.000 -50.000
-1258.105 237.207 -3054.883 -78.125 1623.242 1885.840 2895.508 3119.336 108.984 -494.141 -9.766 -1380.176 0.000 2261.328 -2757.813 -348.145 -2651.172 1694.922 0.000 -229.883 2147.949 -2654.004 1685.059 295.996 -2710.059 2922.656 1127.344 -3180.078 -1162.500 -119.238 -3140.234 -3176.855 0.000 0.000 -50.000
-1262.988 228.223 -3056.738 -78.809 1620.801 1879.395 2893.457 3121.680 109.082 -502.148 -16.211 -1379.688 0.000 2264.648 -2760.449 -350.781 -2653.027 1695.215 0.000 -226.660 2143.750 -2657.520 1687.793 304.980 -2709.863 2920.703 1129.199 -3172.949 -1159.375 -110.254 -3132.129 -3169.141 0.000 0.000 -50.000
-1263.574 227.734 -3058.398 -77.344 1620.508 1878.027 2892.969 3122.266 108.301 -502.344 -21.680 -1379.199 0.000 2266.992 -2760.938 -352.051 -2653.516 1693.066 0.000 -227.148 2143.555 -2657.617 1688.965 308.008 -2709.863 2921.191 1129.004 -3172.461 -1159.668 -108.203 -3127.637 -3168.750 0.000 0.000 -50.000
-1261.230 230.566 -3056.348 -75.781 1621.191 1880.469 2894.336 3122.363 108.203 -499.219 -27.930 -1378.516 0.000 2266.309 -2758.789 -348.438 -2651.367 1688.672 0.000 -225.098 2147.363 -2654.297 1688.574 305.371 -2711.328 2921.289 1127.051 -3177.637 -1160.840 -108.691 -3129.980 -3175.977 0.000 0.000 -50.000
-1256.348 237.988 -3053.320 -75.391 1627.148 1890.430 2899.023 3120.898 111.719 -494.531 -26.367 -1380.273 0.000 2263.184 -2756.348 -342.773 -2649.512 1681.738 0.000 -226.660 2151.758 -2651.074 1684.668 296.680 -2710.156 2924.219 1123.145 -3186.719 -1160.645 -115.430 -3139.258 -3187.500 0.000 0.000 -50.000
-1247.070 246.387 -3048.047 -75.098 1631.738 1900.195 2899.121 3120.020 112.402 -484.082 -4.980 -1381.055 0.000 2259.570 -2752.930 -335.449 -2647.754 1671.973 0.000 -230.273 2157.227 -2647.070 1679.102 284.863 -2710.645 2924.609 1118.262 -3200.000 -1164.063 -124.121 -3150.781 3198.438 0.000 0.000 -50.000
-1241.895 251.855 -3046.680 -74.414 1635.742 1908.301 2900.391 3118.555 110.645 -478.906 34.473 -1381.543 0.000 2255.859 -2751.172 -326.270 -2646.289 1664.844 0.000 -233.301 2161.816 -2644.531 1671.875 272.852 -2712.109 2925.586 1113.477 3188.672 -1167.871 -133.398 -3161.328 3185.352 0.000 0.000 -50.000
-1241.113 253.516 -3045.703 -76.855 1636.035 1911.230 2900.879 3115.820 110.742 -477.344 72.656 -1383.594 0.000 2252.441 -2750.195 -321.777 -2647.070 1660.547 0.000 -234.863 2163.867 -2643.945 1668.652 267.383 -2713.379 2926.758 1111.230 3181.152 -1169.629 -136.523 -3167.578 3176.855 0.000 0.000 -50.000
-1243.262 252.246 -3047.070 -76.953 1634.863 1908.984 2900.195 3116.797 110.156 -479.688 65.039 -1383.887 0.000 2254.785 -2751.758 -321.973 -2647.559 1662.402 0.000 -233.887 2164.258 -2645.215 1670.117 269.043 -2714.063 2926.758 1111.230 3183.789 -1167.969 -133.398 -3163.574 3179.492 0.000 0.000 -50.000
-1247.461 245.605 -3048.535 -76.270 1630.762 1900.684 2898.340 3117.676 109.082 -486.328 53.906 -1383.105 0.000 2257.715 -2754.395 -324.902 -2650.098 1664.160 0.000 -229.785 2162.109 -2648.633 1674.512 279.004 -2713.281 2925.000 1114.844 3189.648 -1165.820 -126.660 -3155.371 3187.695 0.000 0.000 -50.000
-1257.422 235.254 -3054.102 -76.074 1624.512 1889.648 2893.262 3118.652 108.105 -494.629 57.422 -1382.910 0.000 2261.133 -2758.496 -330.469 -2652.441 1667.480 0.000 -227.539 2156.738 -2653.516 1680.176 289.844 -2714.453 2923.633 1119.238 3198.633 -1161.328 -114.746 -3143.652 3198.340 0.000 0.000 -50.000
-1264.844 228.516 -3057.520 -75.000 1617.969 1878.711 2890.918 3120.703 106.641 -500.586 45.703 -1381.543 0.000 2266.309 -2762.402 -336.621 -2654.785 1671.289 0.000 -225.195 2153.418 -2657.422 1685.742 299.902 -2713.184 2922.266 1122.461 -3191.699 -1159.277 -104.395 -3134.277 -3191.504 0.000 0.000 -50.000
-1267.090 224.707 -3058.691 -75.488 1615.137 1875.098 2890.039 3120.703 106.445 -504.492 50.293 -1382.227 0.000 2265.820 -2763.379 -337.109 -2655.371 1672.168 0.000 -223.926 2150.684 -2658.203 1686.426 305.664 -2713.965 2920.410 1123.926 -3189.258 -1158.789 -99.902 -3131.250 -3187.988 0.000 0.000 -50.000
-1265.332 225.879 -3058.691 -75.977 1615.820 1876.660 2891.504 3119.434 107.227 -501.953 54.199 -1383.008 0.000 2266.211 -2762.500 -334.766 -2654.590 1670.410 0.000 -224.023 2152.832 -2657.227 1685.840 303.223 -2715.137 2921.484 1124.805 -3193.750 -1160.352 -100.781 -3132.910 -3193.848 0.000 0.000 -50.000
-1260.156 231.250 -3054.199 -75.781 1621.777 1885.938 2894.141 3119.531 107.715 -496.289 42.188 -1383.008 0.000 2264.355 -2758.105 -327.539 -2653.516 1665.332 0.000 -226.172 2158.203 -2652.539 1682.031 295.117 -2715.039 2925.000 1121.680 3199.121 -1160.840 -107.617 -3139.355 3196.973 0.000 0.000 -50.000
-1251.953 242.285 -3050.098 -73.047 1627.930 1895.703 2899.707 3119.238 109.473 -487.695 44.238 -1383.203 0.000 2260.742 -2754.688 -320.215 -2651.172 1657.617 0.000 -227.832 2163.770 -2647.168 1676.758 283.398 -2716.602 2926.758 1117.676 3186.523 -1162.891 -118.262 -3151.172 3184.473 0.000 0.000 -50.000
-1243.457 250.391 -3046.191 -71.777 1633.789 1908.496 2902.637 3118.164 109.277 -480.469 50.391 -1383.105 0.000 2256.738 -2751.465 -311.621 -2648.828 1653.613 0.000 -230.176 2170.801 -2643.359 1671.289 271.582 -2717.383 2929.102 1113.965 3172.949 -1166.211 -126.465 -3162.695 3170.215 0.000 0.000 -50.000
-1241.016 255.176 -3043.262 -70.898 1635.840 1914.160 2904.004 3118.164 110.547 -477.539 58.105 -1382.520 0.000 2254.297 -2748.633 -308.887 -2647.461 1650.000 0.000 -230.762 2175.195 -2642.383 1668.555 264.941 -2716.602 2930.762 1109.766 3164.648 -1167.773 -131.152 -3168.457 3163.672 0.000 0.000 -50.000
-1240.820 251.074 -3044.824 -70.215 1636.035 1910.840 2902.441 3118.262 111.133 -475.684 54.199 -1382.617 0.000 2255.762 -2749.609 -309.766 -2647.852 1649.902 0.000 -229.297 2175.488 -2642.285 1670.117 266.797 -2716.895 2931.055 1111.133 3165.137 -1166.699 -129.785 -3165.723 3163.281 0.000 0.000 -50.000
-1247.656 243.262 -3046.680 -72.559 1631.445 1905.078 2900.293 3119.629 110.547 -481.836 48.926 -1382.715 0.000 2258.105 -2751.953 -313.574 -2648.633 1650.781 0.000 -227.344 2173.340 -2643.652 1673.047 273.828 -2715.918 2930.566 1115.039 3171.484 -1163.574 -122.754 -3156.641 3170.605 0.000 0.000 -50.000
-1255.371 233.594 -3050.879 -72.461 1626.758 1895.996 2897.266 3120.020 109.570 -491.504 45.020 -1382.617 0.000 2261.426 -2754.688 -319.727 -2652.637 1654.492 0.000 -224.023 2169.434 -2648.438 1676.758 287.109 -2716.211 2928.613 1119.434 3180.176 -1159.473 -110.938 -3146.680 3180.078 0.000 0.000 -50.000
-1262.500 226.855 -3056.348 -72.559 1620.898 1883.789 2894.629 3121.191 108.594 -498.145 30.371 -1381.348 0.000 2265.625 -2757.715 -324.219 -2653.809 1659.180 0.000 -220.508 2164.551 -2652.539 1683.203 297.461 -2716.016 2927.930 1123.535 3188.574 -1157.324 -98.730 -3134.863 3190.430 0.000 0.000 -50.000
-1267.285 222.559 -3058.496 -72.266 1616.113 1877.539 2892.188 3122.070 108.398 -503.320 25.293 -1381.836 0.000 2267.676 -2759.277 -328.223 -2656.055 1662.402 0.000 -218.262 2162.500 -2654.297 1687.109 305.176 -2715.137 2927.930 1124.609 3194.238 -1155.469 -93.262 -3128.516 3196.191 0.000 0.000 -50.000
-1267.676 221.973 -3057.422 -72.559 1616.504 1879.102 2890.723 3122.852 108.496 -504.395 32.617 -1381.152 0.000 2266.309 -2759.570 -327.734 -2657.422 1665.234 0.000 -217.090 2162.695 -2654.199 1684.863 304.199 -2716.992 2928.125 1126.367 3190.723 -1156.738 -93.652 -3128.418 3194.531 0.000 0.000 -50.000
-1261.914 226.563 -3055.762 -71.777 1619.531 1886.816 2893.359 3122.070 108.301 -499.316 40.527 -1383.008 0.000 2263.770 -2759.277 -321.582 -2655.078 1665.918 0.000 -219.043 2164.941 -2652.148 1680.957 296.777 -2717.188 2929.785 1122.852 3181.543 -1158.203 -101.074 -3135.742 3187.402 0.000 0.000 -50.000
-1254.004 235.547 -3050.586 -71.094 1624.707 1895.508 2895.898 3120.215 108.496 -491.016 50.293 -1383.105 0.000 2260.156 -2754.492 -313.672 -2651.270 1665.137 0.000 -221.777 2167.969 -2647.266 1675.977 284.766 -2719.141 2931.055 1118.945 3166.406 -1160.840 -110.059 -3148.047 3175.293 0.000 0.000 -50.000
