EEG Fp1-M1Ref EEG Fpz-M1Ref EEG Fp2-M1Ref EEG F7-M1Ref EEG F3-M1Ref EEG Fz-M1Ref EEG F4-M1Ref EEG F8-M1Ref EEG FC5-M1Ref EEG FC1-M1Ref EEG FC2-M1Ref EEG FC6-M1Ref EEG M1-M1Ref EEG T7-M1Ref EEG C3-M1Ref EEG Cz-M1Ref EEG C4-M1Ref EEG T8-M1Ref EEG M2-M1Ref EEG CP5-M1Ref EEG CP1-M1Ref EEG CP2-M1Ref EEG CP6-M1Ref EEG P7-M1Ref EEG P3-M1Ref EEG Pz-M1Ref EEG P4-M1Ref EEG P8-M1Ref EEG POz-M1Ref EEG O1-M1Ref EEG Oz-M1Ref EEG O2-M1Ref EEG HEOG-M1Ref EEG VEOG-M1Ref
-1470.588 40.818 -3312.657 -4999.847 -4999.847 1679.637 5000.000 -4999.847 -122.606 5000.000 -26.474 -1547.799 0.076 -4295.491 -2949.188 -4999.847 5000.000 1684.062 0.076 -4999.847 1948.501 3599.069 5000.000 2534.752 3536.812 2738.308 5000.000 -647.669 -1350.500 -4999.847 3888.990 1065.919 0.076 0.076
-1479.591 31.968 -3323.796 -4999.847 -4999.847 1672.923 5000.000 -4999.847 -136.034 5000.000 -38.071 -1562.448 0.076 -4314.870 -2962.310 -4999.847 5000.000 1669.413 0.076 -4999.847 1937.819 3588.540 5000.000 2535.973 3521.553 2725.490 5000.000 -645.228 -1366.674 -4999.847 4221.637 1061.799 0.076 0.076
-1478.065 32.425 -3327.306 -4999.847 -4999.847 1674.601 5000.000 -4999.847 -142.901 5000.000 -41.276 -1572.518 0.076 -4327.077 -2969.482 -4999.847 5000.000 1656.138 0.076 -4999.847 1930.648 3581.369 5000.000 2519.036 3510.719 2716.182 5000.000 -678.187 -1380.255 -4999.847 4465.477 1062.562 0.076 0.076
-1468.299 44.785 -3320.134 -4999.847 -4999.847 1688.792 5000.000 -4999.847 -141.222 5000.000 -33.341 -1570.687 0.076 -4331.502 -2965.362 -4999.847 5000.000 1650.950 0.076 -4999.847 1931.716 3582.437 5000.000 2478.294 3505.531 2713.588 5000.000 -692.683 -1389.410 -4999.847 4518.272 1034.638 0.076 0.076
-1461.738 52.415 -3314.488 -4999.847 -4999.847 1698.100 5000.000 -4999.847 -138.323 5000.000 -31.052 -1570.840 0.076 -4335.012 -2962.615 -4999.847 5000.000 1650.950 0.076 -4999.847 1934.157 3586.557 5000.000 2480.125 3503.090 2713.588 5000.000 -685.969 -1393.225 -4999.847 4494.163 1011.749 0.076 0.076
-1460.670 54.246 -3312.657 -4999.847 -4999.847 1697.948 5000.000 -4999.847 -139.391 5000.000 -30.594 -1570.077 0.076 -4335.012 -2961.852 -4999.847 5000.000 1655.375 0.076 -4999.847 1936.904 3590.372 5000.000 2492.485 3506.294 2716.182 5000.000 -703.517 -1392.157 -4999.847 4477.836 996.948 0.076 0.076
-1463.417 49.363 -3315.251 -4999.847 -4999.847 1693.522 5000.000 -4999.847 -137.865 5000.000 -33.036 -1569.009 0.076 -4330.892 -2962.310 -4999.847 5000.000 1663.615 0.076 -4999.847 1937.819 3592.355 5000.000 2514.153 3511.330 2718.471 5000.000 -735.409 -1384.070 -4999.847 4466.850 980.774 0.076 0.076
-1470.436 42.344 -3318.303 -4999.847 -4999.847 1685.435 5000.000 -4999.847 -136.797 5000.000 -36.851 -1564.431 0.076 -4322.805 -2961.395 -4999.847 5000.000 1672.160 0.076 -4999.847 1938.430 3590.524 5000.000 2523.156 3516.365 2723.354 5000.000 -789.578 -1375.830 -4999.847 4463.188 984.436 0.076 0.076
-1477.607 34.714 -3319.829 -4999.847 -4999.847 1674.754 5000.000 -4999.847 -134.203 5000.000 -44.633 -1562.448 0.076 -4315.480 -2963.989 -4999.847 5000.000 1677.500 0.076 -4999.847 1934.005 3586.709 5000.000 2513.237 3519.112 2722.743 5000.000 -807.584 -1370.336 -4999.847 4485.771 993.896 0.076 0.076
-1483.864 28.458 -3325.475 -4999.847 -4999.847 1666.056 5000.000 -4999.847 -135.882 5000.000 -52.720 -1564.889 0.076 -4311.971 -2966.888 -4999.847 5000.000 1679.484 0.076 -4999.847 1930.037 3581.674 5000.000 2504.387 3519.417 2719.692 5000.000 -764.706 -1367.437 -4999.847 4497.521 996.948 0.076 0.076
-1489.509 20.676 -3331.884 -4999.847 -4999.847 1657.969 5000.000 -4999.847 -141.833 5000.000 -60.044 -1570.840 0.076 -4316.854 -2971.466 -4999.847 5000.000 1681.010 0.076 -4999.847 1926.528 3581.216 5000.000 2537.499 3514.534 2714.656 5000.000 -707.790 -1371.557 -4999.847 4512.017 1012.207 0.076 0.076
-1491.340 18.235 -3334.325 -4999.847 -4999.847 1659.190 5000.000 -4999.847 -146.715 5000.000 -61.112 -1575.418 0.076 -4326.009 -2975.738 -4999.847 5000.000 1680.552 0.076 -4999.847 1924.697 3580.148 5000.000 2565.423 3510.872 2712.062 5000.000 -668.269 -1377.203 -4999.847 4524.071 1015.717 0.076 0.076
-1484.779 24.796 -3331.731 -4999.847 -4999.847 1666.514 5000.000 -4999.847 -147.936 5000.000 -59.434 -1578.317 0.076 -4332.723 -2975.891 -4999.847 5000.000 1674.296 0.076 -4999.847 1924.239 3579.995 5000.000 2591.668 3505.226 2708.705 5000.000 -671.015 -1385.595 -4999.847 4534.600 1017.243 0.076 0.076
-1474.861 38.987 -3322.728 -4999.847 -4999.847 1681.926 5000.000 -4999.847 -145.190 5000.000 -52.720 -1577.859 0.076 -4336.538 -2971.313 -4999.847 5000.000 1672.160 0.076 -4999.847 1926.223 3581.521 5000.000 2585.260 3502.632 2708.247 5000.000 -703.822 -1392.309 -4999.847 4533.227 1005.341 0.076 0.076
-1464.942 49.058 -3316.014 -4999.847 -4999.847 1693.980 5000.000 -4999.847 -140.612 5000.000 -45.701 -1575.570 0.076 -4338.063 -2966.888 -4999.847 5000.000 1672.313 0.076 -4999.847 1929.885 3584.726 5000.000 2563.134 3500.343 2708.552 5000.000 -717.250 -1397.803 -4999.847 4523.460 983.520 0.076 0.076
-1463.874 51.041 -3313.268 -4999.847 -4999.847 1697.185 5000.000 -4999.847 -139.544 5000.000 -45.243 -1574.807 0.076 -4338.063 -2966.278 -4999.847 5000.000 1677.806 0.076 -4999.847 1931.563 3587.167 5000.000 2532.464 3501.106 2708.858 5000.000 -687.343 -1397.345 -4999.847 4507.591 970.703 0.076 0.076
-1468.452 45.243 -3316.319 -4999.847 -4999.847 1689.860 5000.000 -4999.847 -142.901 5000.000 -51.957 -1576.028 0.076 -4337.606 -2968.566 -4999.847 5000.000 1686.503 0.076 -4999.847 1933.242 3589.151 5000.000 2539.940 3502.479 2710.384 5000.000 -664.759 -1395.209 -4999.847 4507.896 961.395 0.076 0.076
-1477.912 35.325 -3321.813 -4999.847 -4999.847 1678.263 5000.000 -4999.847 -144.732 5000.000 -57.298 -1576.944 0.076 -4334.249 -2969.787 -4999.847 5000.000 1697.795 0.076 -4999.847 1930.037 3587.777 5000.000 2564.813 3507.515 2710.689 5000.000 -683.070 -1387.732 -4999.847 4517.510 968.261 0.076 0.076
-1486.305 25.254 -3328.832 -4999.847 -4999.847 1666.972 5000.000 -4999.847 -144.732 5000.000 -65.690 -1575.418 0.076 -4326.619 -2975.128 -4999.847 5000.000 1706.188 0.076 -4999.847 1924.544 3581.674 5000.000 2565.118 3509.499 2710.079 5000.000 -681.239 -1381.323 -4999.847 4533.989 980.621 0.076 0.076
-1495.918 13.809 -3334.325 -4999.847 -4999.847 1655.833 5000.000 -4999.847 -148.241 5000.000 -73.472 -1578.012 0.076 -4324.788 -2979.705 -4999.847 5000.000 1711.376 0.076 -4999.847 1916.457 3572.976 5000.000 2570.764 3507.057 2705.653 5000.000 -622.492 -1381.170 -4999.847 4551.995 1001.831 0.076 0.076
-1501.869 8.469 -3340.886 -4999.847 -4999.847 1646.677 5000.000 -4999.847 -154.040 5000.000 -80.949 -1583.963 0.076 -4328.450 -2986.877 -4999.847 5000.000 1713.970 0.076 -4999.847 1911.269 3568.398 5000.000 2583.276 3502.022 2699.702 5000.000 -546.654 -1386.816 -4999.847 4578.088 1017.853 0.076 0.076
-1506.905 7.095 -3343.938 -4999.847 -4999.847 1646.525 5000.000 -4999.847 -158.160 5000.000 -84.764 -1587.930 0.076 -4336.690 -2989.624 -4999.847 5000.000 1718.547 0.076 -4999.847 1909.438 3567.941 5000.000 2588.312 3496.834 2696.803 5000.000 -504.692 -1390.021 -4999.847 4592.279 1031.586 0.076 0.076
-1501.869 10.300 -3341.497 -4999.847 -4999.847 1652.933 5000.000 -4999.847 -160.601 5000.000 -84.154 -1591.592 0.076 -4344.777 -2991.607 -4999.847 5000.000 1722.667 0.076 -4999.847 1913.252 3569.772 5000.000 2597.009 3494.545 2694.514 5000.000 -500.114 -1398.718 -4999.847 4601.587 1034.638 0.076 0.076
-1492.103 21.897 -3335.698 -4999.847 -4999.847 1665.141 5000.000 -4999.847 -159.686 5000.000 -76.982 -1593.729 0.076 -4351.797 -2989.776 -4999.847 5000.000 1723.735 0.076 -4999.847 1913.405 3570.687 5000.000 2602.502 3490.730 2692.683 5000.000 -506.371 -1407.111 -4999.847 4597.467 1033.875 0.076 0.076
-1483.101 33.188 -3328.832 -4999.847 -4999.847 1676.585 5000.000 -4999.847 -156.481 5000.000 -69.352 -1591.592 0.076 -4355.611 -2985.351 -4999.847 5000.000 1729.839 0.076 -4999.847 1913.863 3572.061 5000.000 2571.374 3487.068 2691.768 5000.000 -486.534 -1413.977 -4999.847 4578.698 1021.515 0.076 0.076
-1478.828 36.698 -3326.238 -4999.847 -4999.847 1683.909 5000.000 -4999.847 -154.040 5000.000 -68.284 -1590.982 0.076 -4356.069 -2981.842 -4999.847 5000.000 1741.283 0.076 -4999.847 1915.541 3573.281 5000.000 2538.415 3486.000 2692.531 5000.000 -455.100 -1415.045 -4999.847 4555.962 1008.545 0.076 0.076
-1484.169 33.188 -3328.984 -4999.847 -4999.847 1678.416 5000.000 -4999.847 -155.566 5000.000 -73.167 -1592.050 0.076 -4357.595 -2985.504 -4999.847 5000.000 1753.643 0.076 -4999.847 1915.541 3572.366 5000.000 2539.635 3486.305 2692.073 5000.000 -412.985 -1412.756 -4999.847 4547.570 1004.883 0.076 0.076
-1492.561 23.117 -3335.241 -4999.847 -4999.847 1666.056 5000.000 -4999.847 -159.075 5000.000 -80.644 -1592.813 0.076 -4354.543 -2989.776 -4999.847 5000.000 1765.698 0.076 -4999.847 1913.558 3569.772 5000.000 2568.627 3489.052 2691.615 5000.000 -401.999 -1408.484 -4999.847 4548.485 1012.970 0.076 0.076
-1501.259 12.741 -3340.429 -4999.847 -4999.847 1653.849 5000.000 -4999.847 -159.686 5000.000 -88.426 -1593.729 0.076 -4348.897 -2992.523 -4999.847 5000.000 1781.109 0.076 -4999.847 1911.269 3566.720 5000.000 2587.701 3494.240 2692.225 5000.000 -428.092 -1401.617 -4999.847 4554.131 1026.856 0.076 0.076
-1509.956 3.738 -3345.922 -4999.847 -4999.847 1643.320 5000.000 -4999.847 -163.348 5000.000 -95.598 -1593.576 0.076 -4343.862 -2995.727 -4999.847 5000.000 1792.248 0.076 -4999.847 1905.623 3562.448 5000.000 2580.072 3494.698 2690.699 5000.000 -415.885 -1397.345 -4999.847 4577.936 1046.082 0.076 0.076
-1515.297 -1.907 -3348.668 -4999.847 -4999.847 1637.217 5000.000 -4999.847 -164.111 5000.000 -100.786 -1596.475 0.076 -4344.320 -2999.390 -4999.847 5000.000 1802.014 0.076 -4999.847 1899.672 3556.954 5000.000 2559.319 3491.188 2686.122 5000.000 -371.786 -1398.260 -4999.847 4598.688 1068.818 0.076 0.076
-1518.349 -3.586 -3352.026 -4999.847 -4999.847 1633.707 5000.000 -4999.847 -168.994 5000.000 -103.990 -1600.290 0.076 -4349.965 -3003.357 -4999.847 5000.000 1812.085 0.076 -4999.847 1897.078 3555.276 5000.000 2566.033 3486.000 2682.155 5000.000 -312.276 -1404.822 -4999.847 4609.674 1079.652 0.076 0.076
-1516.670 -2.213 -3354.162 -4999.847 -4999.847 1635.691 5000.000 -4999.847 -172.656 5000.000 -105.516 -1607.614 0.076 -4359.579 -3006.714 -4999.847 5000.000 1824.750 0.076 -4999.847 1898.909 3556.802 5000.000 2587.854 3480.964 2680.018 5000.000 -284.504 -1411.383 -4999.847 4617.304 1086.671 0.076 0.076
-1510.414 5.570 -3349.584 -4999.847 -4999.847 1645.151 5000.000 -4999.847 -173.266 5000.000 -102.464 -1608.988 0.076 -4367.819 -3006.714 -4999.847 5000.000 1832.837 0.076 -4999.847 1900.282 3557.412 5000.000 2613.336 3476.692 2678.340 5000.000 -314.107 -1419.776 -4999.847 4622.034 1092.622 0.076 0.076
-1500.038 18.082 -3340.886 -4999.847 -4999.847 1659.953 5000.000 -4999.847 -169.299 5000.000 -93.462 -1606.088 0.076 -4370.871 -3001.373 -4999.847 5000.000 1840.162 0.076 -4999.847 1904.402 3561.074 5000.000 2613.184 3475.776 2679.408 5000.000 -370.260 -1424.659 -4999.847 4609.369 1076.753 0.076 0.076
-1490.883 27.695 -3334.020 -4999.847 -4999.847 1671.855 5000.000 -4999.847 -163.653 5000.000 -86.442 -1602.884 0.076 -4369.955 -2995.270 -4999.847 5000.000 1849.775 0.076 -4999.847 1906.233 3564.736 5000.000 2590.143 3476.386 2681.239 5000.000 -420.157 -1425.422 -4999.847 4592.889 1063.630 0.076 0.076
-1490.272 27.848 -3332.036 -4999.847 -4999.847 1671.244 5000.000 -4999.847 -162.432 5000.000 -85.374 -1600.137 0.076 -4367.819 -2993.591 -4999.847 5000.000 1856.947 0.076 -4999.847 1907.301 3566.262 5000.000 2570.458 3476.386 2681.392 5000.000 -422.141 -1422.828 -4999.847 4583.734 1061.646 0.076 0.076
-1496.834 19.760 -3338.292 -4999.847 -4999.847 1662.547 5000.000 -4999.847 -163.195 5000.000 -91.325 -1602.426 0.076 -4364.614 -2997.101 -4999.847 5000.000 1864.118 0.076 -4999.847 1908.217 3567.330 5000.000 2589.074 3478.828 2682.917 5000.000 -416.037 -1418.708 -4999.847 4583.276 1064.393 0.076 0.076
-1509.956 6.485 -3346.380 -4999.847 -4999.847 1647.135 5000.000 -4999.847 -168.078 5000.000 -101.396 -1604.868 0.076 -4362.173 -3003.204 -4999.847 5000.000 1867.323 0.076 -4999.847 1904.402 3564.279 5000.000 2658.961 3483.101 2681.697 5000.000 -416.648 -1412.604 -4999.847 4588.464 1073.396 0.076 0.076
-1519.417 -4.501 -3353.094 -4999.847 -4999.847 1633.707 5000.000 -4999.847 -171.130 5000.000 -110.399 -1605.630 0.076 -4359.579 -3007.629 -4999.847 5000.000 1863.203 0.076 -4999.847 1898.299 3559.548 5000.000 2713.130 3484.779 2681.239 5000.000 -448.692 -1405.432 -4999.847 4612.268 1098.268 0.076 0.076
-1525.826 -10.910 -3356.756 -4999.847 -4999.847 1625.315 5000.000 -4999.847 -172.961 5000.000 -115.282 -1606.393 0.076 -4357.290 -3010.223 -4999.847 5000.000 1852.064 0.076 -4999.847 1893.263 3551.919 5000.000 2775.387 3481.880 2677.272 5000.000 -447.166 -1408.484 -4999.847 4634.699 1107.576 0.076 0.076
-1529.946 -15.183 -3361.944 -4999.847 -4999.847 1620.890 5000.000 -4999.847 -175.860 5000.000 -120.470 -1611.276 0.076 -4363.394 -3015.564 -4999.847 5000.000 1834.058 0.076 -4999.847 1889.448 3549.172 5000.000 2857.023 3476.844 2671.626 5000.000 -409.018 -1414.893 -4999.847 4647.517 1113.680 0.076 0.076
-1528.573 -13.657 -3362.859 -4999.847 -4999.847 1623.789 5000.000 -4999.847 -181.659 5000.000 -122.301 -1616.617 0.076 -4371.176 -3018.158 -4999.847 5000.000 1814.221 0.076 -4999.847 1888.991 3549.782 5000.000 2920.195 3472.267 2667.811 5000.000 -391.470 -1421.302 -4999.847 4655.756 1110.628 0.076 0.076
-1521.859 -7.095 -3359.960 -4999.847 -4999.847 1634.165 5000.000 -4999.847 -181.353 5000.000 -117.113 -1619.211 0.076 -4378.500 -3017.395 -4999.847 5000.000 1792.248 0.076 -4999.847 1891.890 3552.987 5000.000 2971.618 3468.147 2666.285 5000.000 -411.765 -1428.626 -4999.847 4659.571 1100.099 0.076 0.076
-1508.583 6.332 -3349.279 -4999.847 -4999.847 1650.492 5000.000 -4999.847 -177.539 5000.000 -105.821 -1615.396 0.076 -4380.789 -3011.292 -4999.847 5000.000 1775.921 0.076 -4999.847 1897.383 3558.480 5000.000 2969.940 3466.926 2670.100 5000.000 -475.547 -1430.610 -4999.847 4649.958 1076.448 0.076 0.076
-1497.749 19.150 -3338.140 -4999.847 -4999.847 1663.767 5000.000 -4999.847 -170.520 5000.000 -94.987 -1610.208 0.076 -4377.432 -3003.662 -4999.847 5000.000 1768.902 0.076 -4999.847 1901.503 3562.448 5000.000 2934.234 3468.910 2674.067 5000.000 -535.973 -1430.915 -4999.847 4640.192 1053.864 0.076 0.076
-1495.155 21.897 -3336.767 -4999.847 -4999.847 1664.988 5000.000 -4999.847 -167.620 5000.000 -92.851 -1607.614 0.076 -4375.601 -3001.526 -4999.847 5000.000 1769.360 0.076 -4999.847 1904.250 3566.567 5000.000 2898.375 3469.520 2675.135 5000.000 -513.542 -1431.220 -4999.847 4629.969 1037.995 0.076 0.076
-1500.343 17.472 -3339.055 -4999.847 -4999.847 1659.495 5000.000 -4999.847 -168.383 5000.000 -97.124 -1608.072 0.076 -4372.396 -3002.594 -4999.847 5000.000 1784.771 0.076 -4999.847 1908.675 3570.382 5000.000 2889.525 3476.081 2678.187 5000.000 -541.161 -1422.980 -4999.847 4632.868 1028.229 0.076 0.076
-1509.499 9.537 -3341.955 -4999.847 -4999.847 1648.051 5000.000 -4999.847 -167.773 5000.000 -103.990 -1606.393 0.076 -4365.987 -3004.120 -4999.847 5000.000 1804.608 0.076 -4999.847 1907.301 3569.772 5000.000 2911.803 3482.338 2681.849 5000.000 -606.622 -1413.519 -4999.847 4644.770 1030.365 0.076 0.076
-1517.281 -1.602 -3346.074 -4999.847 -4999.847 1637.827 5000.000 -4999.847 -167.620 5000.000 -109.789 -1605.630 0.076 -4358.358 -3006.104 -4999.847 5000.000 1833.753 0.076 -4999.847 1900.130 3561.532 5000.000 2916.686 3482.948 2679.255 5000.000 -635.157 -1408.637 -4999.847 4668.727 1047.150 0.076 0.076
-1524.453 -9.842 -3353.857 -4999.847 -4999.847 1626.383 5000.000 -4999.847 -171.130 5000.000 -116.197 -1607.614 0.076 -4357.290 -3009.766 -4999.847 5000.000 1866.712 0.076 -4999.847 1891.890 3554.360 5000.000 2928.740 3481.422 2674.525 5000.000 -598.383 -1408.789 -4999.847 4684.901 1050.050 0.076 0.076
-1530.251 -15.793 -3359.808 -4999.847 -4999.847 1620.279 5000.000 -4999.847 -177.386 5000.000 -122.911 -1614.023 0.076 -4363.394 -3016.480 -4999.847 5000.000 1903.181 0.076 -4999.847 1889.296 3550.545 5000.000 2965.057 3477.149 2669.642 5000.000 -568.475 -1414.588 -4999.847 4704.891 1055.543 0.076 0.076
-1531.167 -17.166 -3361.333 -4999.847 -4999.847 1620.432 5000.000 -4999.847 -181.353 5000.000 -125.200 -1618.296 0.076 -4371.328 -3019.074 -4999.847 5000.000 1940.261 0.076 -4999.847 1887.312 3550.088 5000.000 3001.984 3472.877 2667.048 5000.000 -570.611 -1420.386 -4999.847 4717.555 1056.916 0.076 0.076
-1521.096 -5.570 -3354.314 -4999.847 -4999.847 1633.402 5000.000 -4999.847 -178.302 5000.000 -116.503 -1616.159 0.076 -4373.617 -3014.344 -4999.847 5000.000 1974.136 0.076 -4999.847 1891.432 3553.750 5000.000 3012.360 3471.656 2669.337 5000.000 -697.261 -1423.285 -4999.847 4726.253 1048.524 0.076 0.076
-1505.989 9.995 -3341.955 -4999.847 -4999.847 1650.950 5000.000 -4999.847 -171.740 5000.000 -104.143 -1613.413 0.076 -4375.753 -3007.172 -4999.847 5000.000 1999.313 0.076 -4999.847 1896.773 3556.191 5000.000 2980.926 3470.436 2671.321 5000.000 -780.423 -1427.710 -4999.847 4715.419 1028.382 0.076 0.076
-1496.834 21.286 -3333.562 -4999.847 -4999.847 1662.241 5000.000 -4999.847 -168.078 5000.000 -95.598 -1607.614 0.076 -4377.584 -3000.305 -4999.847 5000.000 2019.760 0.076 -4999.847 1901.503 3561.074 5000.000 2939.727 3469.825 2671.931 5000.000 -803.159 -1429.999 -4999.847 4701.228 998.321 0.076 0.076
-1496.986 22.507 -3334.325 -4999.847 -4999.847 1664.988 5000.000 -4999.847 -167.468 5000.000 -96.208 -1610.208 0.076 -4378.500 -3001.221 -4999.847 5000.000 2039.902 0.076 -4999.847 1905.623 3563.668 5000.000 2929.351 3471.046 2675.135 5000.000 -787.900 -1429.694 -4999.847 4687.495 974.823 0.076 0.076
-1499.275 18.692 -3335.393 -4999.847 -4999.847 1659.037 5000.000 -4999.847 -169.146 5000.000 -98.955 -1608.072 0.076 -4376.516 -3001.373 -4999.847 5000.000 2062.791 0.076 -4999.847 1907.301 3564.431 5000.000 2947.814 3475.013 2677.424 5000.000 -821.012 -1423.285 -4999.847 4681.086 957.580 0.076 0.076
-1504.768 11.368 -3337.835 -4999.847 -4999.847 1652.323 5000.000 -4999.847 -166.400 5000.000 -102.770 -1606.393 0.076 -4371.176 -3000.916 -4999.847 5000.000 2085.985 0.076 -4999.847 1900.740 3558.785 5000.000 2961.547 3478.218 2679.103 5000.000 -862.516 -1417.945 -4999.847 4687.342 956.817 0.076 0.076
-1511.482 3.281 -3342.107 -4999.847 -4999.847 1641.184 5000.000 -4999.847 -163.500 5000.000 -108.263 -1602.731 0.076 -4361.410 -3002.289 -4999.847 5000.000 2098.039 0.076 -4999.847 1896.925 3552.376 5000.000 2953.460 3480.507 2677.882 5000.000 -881.743 -1410.925 -4999.847 4699.245 968.261 0.076 0.076
-1523.384 -7.248 -3350.042 -4999.847 -4999.847 1627.756 5000.000 -4999.847 -168.994 5000.000 -119.707 -1607.462 0.076 -4361.563 -3009.308 -4999.847 5000.000 2095.903 0.076 -4999.847 1891.279 3546.578 5000.000 2963.378 3479.744 2672.694 5000.000 -784.695 -1410.620 -4999.847 4710.994 982.605 0.076 0.076
-1530.861 -14.420 -3355.383 -4999.847 -4999.847 1619.974 5000.000 -4999.847 -174.945 5000.000 -123.980 -1611.276 0.076 -4366.445 -3013.733 -4999.847 5000.000 2075.151 0.076 -4999.847 1888.228 3542.306 5000.000 2982.147 3477.149 2671.626 5000.000 -734.493 -1410.620 -4999.847 4737.087 1000.763 0.076 0.076
-1527.657 -12.589 -3353.704 -4999.847 -4999.847 1623.789 5000.000 -4999.847 -174.945 5000.000 -122.301 -1613.107 0.076 -4371.328 -3012.970 -4999.847 5000.000 2031.510 0.076 -4999.847 1890.364 3544.137 5000.000 3004.883 3476.386 2671.168 5000.000 -750.668 -1412.146 -4999.847 4752.804 1018.616 0.076 0.076
-1517.586 -2.060 -3346.685 -4999.847 -4999.847 1634.928 5000.000 -4999.847 -170.367 5000.000 -116.503 -1610.056 0.076 -4373.159 -3008.698 -4999.847 5000.000 1969.711 0.076 -4999.847 1893.110 3545.205 5000.000 2986.419 3474.708 2671.778 5000.000 -750.973 -1417.182 -4999.847 4763.027 1028.839 0.076 0.076
-1508.583 8.316 -3340.124 -4999.847 -4999.847 1647.288 5000.000 -4999.847 -168.994 5000.000 -109.941 -1610.971 0.076 -4379.568 -3006.866 -4999.847 5000.000 1897.993 0.076 -4999.847 1892.958 3544.747 5000.000 2954.223 3469.520 2668.879 5000.000 -644.160 -1425.727 -4999.847 4766.689 1025.635 0.076 0.076
-1502.937 14.725 -3337.377 -4999.847 -4999.847 1655.070 5000.000 -4999.847 -170.825 5000.000 -106.737 -1614.176 0.076 -4387.045 -3006.561 -4999.847 5000.000 1835.126 0.076 -4999.847 1896.162 3547.951 5000.000 2941.710 3464.179 2667.048 5000.000 -528.954 -1431.678 -4999.847 4759.518 1012.818 0.076 0.076
-1504.921 13.199 -3339.971 -4999.847 -4999.847 1654.765 5000.000 -4999.847 -174.792 5000.000 -109.483 -1618.296 0.076 -4393.759 -3007.782 -4999.847 5000.000 1782.483 0.076 -4999.847 1894.636 3548.562 5000.000 2972.076 3462.959 2665.370 5000.000 -453.269 -1434.424 -4999.847 4789.730 1000.916 0.076 0.076
-1511.177 7.858 -3344.243 -4999.847 -4999.847 1646.677 5000.000 -4999.847 -178.302 5000.000 -116.960 -1621.805 0.076 -4396.658 -3012.054 -4999.847 5000.000 1737.621 0.076 -4999.847 1889.754 3542.458 5000.000 3002.594 3459.602 2663.386 5000.000 -422.446 -1436.255 -4999.847 4900.053 989.471 0.076 0.076
-1516.365 0.229 -3347.906 -4999.847 -4999.847 1638.437 5000.000 -4999.847 -178.912 5000.000 -120.623 -1621.042 0.076 -4391.623 -3013.275 -4999.847 5000.000 1697.642 0.076 -4999.847 1883.650 3536.965 5000.000 3002.747 3459.602 2659.571 5000.000 -407.950 -1431.525 -4999.847 4981.994 987.335 0.076 0.076
-1527.199 -11.215 -3353.094 -4999.847 -4999.847 1624.857 5000.000 -4999.847 -181.201 5000.000 -130.999 -1620.737 0.076 -4389.029 -3016.785 -4999.847 5000.000 1689.403 0.076 -4999.847 1877.546 3530.861 5000.000 3003.967 3459.144 2658.656 5000.000 -316.854 -1427.863 -4999.847 4987.640 986.267 0.076 0.076
-1539.406 -25.559 -3363.927 -4999.847 -4999.847 1609.293 5000.000 -4999.847 -187.762 5000.000 -142.290 -1625.772 0.076 -4391.623 -3025.788 -4999.847 5000.000 1650.034 0.076 -4999.847 1870.832 3525.063 5000.000 3036.164 3456.550 2653.315 5000.000 -200.580 -1428.016 -4999.847 5000.000 987.335 0.076 0.076
-1552.987 -38.682 -3375.982 -4999.847 -4999.847 1593.881 5000.000 -4999.847 -198.901 5000.000 -157.092 -1637.827 0.076 -4400.778 -3036.622 -4999.847 5000.000 1657.816 0.076 -4999.847 1862.287 3516.518 5000.000 3113.985 3449.531 2644.923 5000.000 -124.590 -1433.204 -4999.847 5000.000 1001.373 0.076 0.076
-1565.499 -50.431 -3388.800 -4999.847 -4999.847 1582.895 5000.000 -4999.847 -212.940 5000.000 -170.672 -1651.408 0.076 -4416.953 -3048.829 -4999.847 5000.000 1644.236 0.076 -4999.847 1847.181 3503.395 5000.000 3212.253 3437.323 2631.647 5000.000 86.290 -1448.157 -4999.847 5000.000 1001.221 0.076 0.076
-1562.753 -47.837 -3389.715 -4999.847 -4999.847 1585.489 5000.000 -4999.847 -216.602 5000.000 -173.724 -1657.053 0.076 -4425.650 -3052.644 -4999.847 5000.000 1632.334 0.076 -4999.847 1842.145 3496.834 5000.000 3242.008 3428.168 2622.034 5000.000 180.591 -1461.128 -4999.847 5000.000 997.406 0.076 0.076
-1555.276 -38.529 -3383.764 -4999.847 -4999.847 1598.306 5000.000 -4999.847 -215.534 5000.000 -168.688 -1658.885 0.076 -4432.517 -3049.439 -4999.847 5000.000 1617.990 0.076 -4999.847 1843.519 3499.580 5000.000 3198.367 3421.302 2619.898 5000.000 218.128 -1467.079 -4999.847 5000.000 988.556 0.076 0.076
-1560.616 -42.344 -3391.852 -4999.847 -4999.847 1596.933 5000.000 -4999.847 -228.504 5000.000 -178.149 -1673.838 0.076 -4451.591 -3059.815 -4999.847 5000.000 1590.066 0.076 -4999.847 1836.042 3490.120 5000.000 3224.002 3406.195 2606.927 5000.000 515.984 -1484.626 -4999.847 5000.000 951.629 0.076 0.076
-1619.974 -101.396 -3453.040 -4999.847 -4999.847 1535.744 5000.000 -4999.847 -293.507 5000.000 -240.864 -1738.537 0.076 -4518.272 -3122.377 -4999.847 5000.000 1524.758 0.076 -4999.847 1775.616 3427.863 5000.000 3155.947 3343.633 2542.992 5000.000 2372.396 -1549.172 -4999.847 5000.000 851.835 0.076 0.076
-1639.963 -120.775 -3470.741 -4999.847 -4999.847 1517.281 5000.000 -4999.847 -311.666 5000.000 -261.769 -1757.000 0.076 -4535.820 -3139.925 -4999.847 5000.000 1498.054 0.076 -4999.847 1753.490 3409.094 5000.000 3171.359 3327.306 2524.834 5000.000 2899.443 -1564.431 -4999.847 5000.000 795.529 0.076 0.076
-1587.625 -69.352 -3416.114 -4999.847 -4999.847 1567.636 5000.000 -4999.847 -253.071 5000.000 -210.956 -1695.354 0.076 -4474.327 -3082.399 -4999.847 5000.000 1551.003 0.076 -4999.847 1806.287 3461.585 5000.000 3149.386 3384.222 2580.072 5000.000 1386.358 -1504.768 -4999.847 5000.000 827.726 0.076 0.076
-1571.450 -55.161 -3395.971 -4999.847 -4999.847 1580.453 5000.000 -4999.847 -228.351 5000.000 -193.408 -1668.803 0.076 -4445.182 -3060.273 -4999.847 5000.000 1573.281 0.076 -4999.847 1827.497 3483.101 5000.000 3079.957 3411.383 2603.876 5000.000 840.543 -1475.166 -4999.847 5000.000 831.846 0.076 0.076
-1563.973 -48.295 -3385.138 -4999.847 -4999.847 1585.336 5000.000 -4999.847 -214.008 5000.000 -185.626 -1654.917 0.076 -4426.718 -3048.066 -4999.847 5000.000 1594.949 0.076 -4999.847 1841.688 3499.580 5000.000 2948.882 3429.236 2622.034 5000.000 534.447 -1452.125 -4999.847 5000.000 856.260 0.076 0.076
-1544.900 -29.984 -3365.148 -4999.847 -4999.847 1602.579 5000.000 -4999.847 -192.950 5000.000 -169.757 -1633.402 0.076 -4405.508 -3027.313 -4999.847 5000.000 1624.094 0.076 -4999.847 1865.187 3521.858 5000.000 3013.733 3455.177 2645.380 5000.000 188.830 -1425.116 -4999.847 4922.637 894.408 0.076 0.076
-1444.648 70.726 -3263.828 -4999.847 -4999.847 1704.662 5000.000 -4999.847 -91.783 5000.000 -72.557 -1531.319 0.076 -4306.630 -2925.231 -4999.847 5000.000 1718.395 0.076 -4999.847 1963.912 3620.432 5000.000 3110.323 3555.276 2745.632 5000.000 -81.865 -1325.170 -4999.847 2377.432 1008.087 0.076 0.076
-1421.302 93.462 -3242.924 -4999.847 -4999.847 1729.076 5000.000 -4999.847 -73.472 5000.000 -53.941 -1516.060 0.076 -4291.829 -2905.699 -4999.847 5000.000 1729.992 0.076 -4999.847 1977.340 3636.759 5000.000 3064.851 3568.551 2760.128 5000.000 -219.654 -1312.963 -4999.847 2087.053 1036.774 0.076 0.076
-1441.901 74.845 -3267.796 -4999.847 -4999.847 1712.139 5000.000 -4999.847 -102.312 5000.000 -78.660 -1546.883 0.076 -4326.619 -2933.166 -4999.847 5000.000 1705.425 0.076 -4999.847 1950.484 3609.903 5000.000 2984.588 3533.913 2728.542 5000.000 -26.017 -1349.126 -4999.847 2730.831 1007.935 0.076 0.076
-1469.062 49.058 -3298.009 -4999.847 -4999.847 1688.487 5000.000 -4999.847 -139.086 5000.000 -112.535 -1585.641 0.076 -4369.497 -2967.651 -4999.847 5000.000 1677.500 0.076 -4999.847 1921.645 3580.606 5000.000 2943.847 3496.834 2693.599 5000.000 328.908 -1388.495 -4999.847 3367.742 937.133 0.076 0.076
-1445.869 71.946 -3276.188 -4999.847 -4999.847 1710.765 5000.000 -4999.847 -121.080 5000.000 -95.598 -1568.246 0.076 -4354.543 -2948.272 -4999.847 5000.000 1713.970 0.076 -4999.847 1942.702 3600.595 5000.000 2969.329 3515.145 2712.673 5000.000 411.612 -1371.862 -4999.847 3472.572 952.392 0.076 0.076
-1341.497 175.097 -3173.342 -4999.847 -4999.847 1812.695 5000.000 -4999.847 -15.335 5000.000 3.128 -1462.959 0.076 -4249.714 -2843.290 -4999.847 5000.000 1827.039 0.076 -4999.847 2044.785 3704.204 5000.000 3039.979 3618.601 2815.061 5000.000 -1661.631 -1269.322 -4999.847 3476.539 1068.360 0.076 0.076
-1125.429 390.860 -2955.596 -4999.847 -4999.847 2029.679 5000.000 -4999.847 205.768 5000.000 216.297 -1239.872 0.076 -4028.763 -2623.102 -4999.847 5000.000 1975.509 0.076 -4999.847 2260.700 3920.729 5000.000 3230.259 3840.162 3034.791 5000.000 -4999.847 -1045.624 -4999.847 3638.132 1280.308 0.076 0.076
-1182.040 332.265 -3009.766 -4999.847 -4999.847 1972.610 5000.000 -4999.847 156.786 5000.000 157.092 -1287.633 0.076 -4074.235 -2674.983 -4999.847 5000.000 1901.350 0.076 -4999.847 2207.751 3867.933 5000.000 4663.691 3793.316 2984.131 5000.000 -4999.847 -1090.333 -4999.847 3564.279 1274.357 0.076 0.076
-1070.954 442.283 -2893.950 -4999.847 -4999.847 2080.949 5000.000 -4999.847 277.943 5000.000 267.872 -1165.713 0.076 -3949.569 -2557.488 -4999.847 5000.000 2014.877 0.076 -4999.847 2320.973 3982.376 5000.000 1118.868 3915.694 3107.271 5000.000 -4999.847 -963.073 -4999.847 3683.146 1427.405 0.076 0.076
-1038.758 473.716 -2859.464 -4999.847 -4999.847 2111.925 5000.000 -4999.847 316.396 5000.000 303.273 -1126.802 0.076 -3910.048 -2521.630 -4999.847 5000.000 2061.723 0.076 -4999.847 2354.696 4016.708 5000.000 4.044 3955.215 3144.961 5000.000 -4999.847 -922.332 -4999.847 3716.411 1469.520 0.076 0.076
-1111.238 400.320 -2931.945 -4999.847 -4999.847 2036.545 5000.000 -4999.847 242.237 5000.000 229.419 -1198.672 0.076 -3982.681 -2595.788 -4999.847 5000.000 1999.771 0.076 -4999.847 2280.690 3942.855 5000.000 214.313 3880.598 3070.344 5000.000 -4999.847 -996.185 -4999.847 3639.658 1399.329 0.076 0.076
-1212.558 300.679 -3033.417 -4999.847 -4999.847 1938.125 5000.000 -4999.847 136.950 5000.000 126.574 -1305.028 0.076 -4090.257 -2697.261 -4999.847 5000.000 1886.854 0.076 -4999.847 2177.539 3838.636 5000.000 556.725 3774.700 2964.294 5000.000 -3305.486 -1103.304 -4999.847 3525.368 1291.752 0.076 0.076
-1238.193 276.112 -3062.257 -4999.847 -4999.847 1912.032 5000.000 -4999.847 104.753 5000.000 96.361 -1339.055 0.076 -4126.421 -2728.847 -4999.847 5000.000 1828.565 0.076 -4999.847 2146.868 3809.491 5000.000 824.521 3740.063 2930.266 5000.000 -2619.135 -1141.298 -4999.847 3478.523 1262.608 0.076 0.076
-1221.714 294.423 -3048.066 -4999.847 -4999.847 1931.105 5000.000 -4999.847 112.230 5000.000 106.889 -1332.341 0.076 -4123.521 -2717.708 -4999.847 5000.000 1791.333 0.076 -4999.847 2158.465 3820.935 5000.000 772.183 3745.556 2938.506 5000.000 -2723.201 -1139.010 -4999.847 3468.452 1252.079 0.076 0.076
-1207.218 307.851 -3036.774 -4999.847 -4999.847 1948.501 5000.000 -4999.847 121.996 5000.000 117.418 -1325.017 0.076 -4118.028 -2707.637 -4999.847 5000.000 1768.139 0.076 -4999.847 2167.926 3829.328 5000.000 645.685 3751.507 2947.509 5000.000 -2777.371 -1133.822 -4999.847 3459.449 1252.537 0.076 0.076
-1189.364 326.314 -3019.837 -4999.847 -4999.847 1966.506 5000.000 -4999.847 138.781 5000.000 131.914 -1309.300 0.076 -4099.870 -2689.937 -4999.847 5000.000 1767.376 0.076 -4999.847 2185.016 3841.382 5000.000 580.072 3769.665 2964.141 5000.000 -2777.676 -1117.189 -4999.847 3462.654 894.255 0.076 0.076
-1179.599 336.538 -3007.935 -4999.847 -4999.847 1975.051 5000.000 -4999.847 151.904 5000.000 143.053 -1295.109 0.076 -4086.595 -2678.798 -4999.847 5000.000 1774.700 0.076 -4999.847 2196.002 3852.979 5000.000 540.246 3784.314 2976.806 5000.000 -2771.115 -1101.015 -4999.847 3472.572 600.977 0.076 0.076
-1188.907 324.025 -3013.275 -4999.847 -4999.847 1963.149 5000.000 -4999.847 149.615 5000.000 135.576 -1297.093 0.076 -4084.764 -2682.307 -4999.847 5000.000 1768.597 0.076 -4999.847 2191.272 3846.418 5000.000 499.962 3784.924 2974.670 5000.000 -2775.387 -1097.963 -4999.847 3471.961 740.597 0.076 0.076
-1198.978 313.191 -3019.989 -4999.847 -4999.847 1949.569 5000.000 -4999.847 147.784 5000.000 125.658 -1296.025 0.076 -4080.644 -2686.732 -4999.847 5000.000 1766.766 0.076 -4999.847 2185.168 3841.840 5000.000 479.973 3783.703 2971.008 5000.000 -2776.760 -1096.284 -4999.847 3476.539 831.540 0.076 0.076
-1207.370 304.952 -3025.635 -4999.847 -4999.847 1939.498 5000.000 -4999.847 144.427 5000.000 118.334 -1298.009 0.076 -4080.339 -2691.768 -4999.847 5000.000 1770.581 0.076 -4999.847 2179.522 3832.990 5000.000 460.136 3781.872 2968.719 5000.000 -2780.270 -1092.775 -4999.847 3477.302 932.250 0.076 0.076
-1208.438 302.205 -3025.635 -4999.847 -4999.847 1935.531 5000.000 -4999.847 141.680 5000.000 113.451 -1299.687 0.076 -4080.949 -2694.209 -4999.847 5000.000 1784.161 0.076 -4999.847 2175.097 3825.666 5000.000 437.400 3781.262 2967.346 5000.000 -2793.088 -1094.301 -4999.847 3469.520 1010.224 0.076 0.076
-1232.395 276.570 -3052.338 -4999.847 -4999.847 1912.032 5000.000 -4999.847 115.434 5000.000 86.442 -1327.459 0.076 -4111.314 -2720.912 -4999.847 5000.000 1750.591 0.076 -4999.847 2148.852 3796.979 5000.000 390.707 3751.659 2939.116 5000.000 -2837.491 -1123.598 -4999.847 3432.441 1874.800 0.076 0.076
-1254.673 256.733 -3076.295 -4999.847 -4999.847 1891.737 5000.000 -4999.847 87.816 5000.000 61.112 -1357.366 0.076 -4141.833 -2747.158 -4999.847 5000.000 1717.174 0.076 -4999.847 2123.827 3768.597 5000.000 344.472 3721.752 2911.498 5000.000 -2884.336 -1155.642 -4999.847 3389.563 2720.455 0.076 0.076
-1259.708 254.444 -3085.756 -4999.847 -4999.847 1888.228 5000.000 -4999.847 74.845 5000.000 52.567 -1373.999 0.076 -4159.991 -2757.687 -4999.847 5000.000 1690.623 0.076 -4999.847 2113.451 3757.000 5000.000 310.903 3707.103 2896.696 5000.000 -2919.432 -1173.495 -4999.847 3358.129 3154.421 0.076 0.076
-1257.725 256.733 -3086.061 -4999.847 -4999.847 1894.331 5000.000 -4999.847 72.709 5000.000 53.635 -1377.966 0.076 -4167.773 -2759.670 -4999.847 5000.000 1679.789 0.076 -4999.847 2112.535 3754.406 5000.000 293.202 3701.152 2894.255 5000.000 -2940.795 -1179.751 -4999.847 3339.818 3287.327 0.076 0.076
-1254.673 259.022 -3085.603 -4999.847 -4999.847 1897.078 5000.000 -4999.847 72.251 5000.000 53.025 -1378.576 0.076 -4168.078 -2759.060 -4999.847 5000.000 1675.975 0.076 -4999.847 2113.146 3753.796 5000.000 286.641 3701.610 2892.576 5000.000 -2953.765 -1181.277 -4999.847 3332.036 3325.933 0.076 0.076
-1257.572 255.360 -3086.519 -4999.847 -4999.847 1894.026 5000.000 -4999.847 71.489 5000.000 50.126 -1379.034 0.076 -4167.773 -2761.501 -4999.847 5000.000 1673.533 0.076 -4999.847 2110.552 3750.286 5000.000 288.777 3702.678 2892.729 5000.000 -2957.580 -1179.904 -4999.847 3333.562 3346.990 0.076 0.076
-1262.303 248.341 -3089.570 -4999.847 -4999.847 1885.634 5000.000 -4999.847 72.099 5000.000 43.565 -1378.119 0.076 -4164.263 -2762.722 -4999.847 5000.000 1675.212 0.076 -4999.847 2106.889 3745.708 5000.000 297.475 3703.746 2892.576 5000.000 -2958.648 -1177.005 -4999.847 3339.666 3362.859 0.076 0.076
-1271.611 239.948 -3093.080 -4999.847 -4999.847 1873.884 5000.000 -4999.847 72.404 5000.000 36.088 -1377.661 0.076 -4159.533 -2765.164 -4999.847 5000.000 1677.958 0.076 -4999.847 2104.143 3740.063 5000.000 311.971 3704.204 2891.661 5000.000 -2954.528 -1171.817 -4999.847 3348.668 3374.304 0.076 0.076
-1276.646 233.082 -3095.674 -4999.847 -4999.847 1865.034 5000.000 -4999.847 71.489 5000.000 30.594 -1376.440 0.076 -4156.023 -2767.758 -4999.847 5000.000 1683.299 0.076 -4999.847 2101.091 3736.248 5000.000 321.431 3705.272 2892.729 5000.000 -2953.613 -1167.391 -4999.847 3355.840 3379.644 0.076 0.076
-1276.799 232.624 -3096.895 -4999.847 -4999.847 1863.355 5000.000 -4999.847 70.726 5000.000 29.831 -1376.135 0.076 -4153.582 -2768.826 -4999.847 5000.000 1684.520 0.076 -4999.847 2099.260 3735.332 5000.000 326.009 3706.798 2893.797 5000.000 -2957.427 -1164.645 -4999.847 3357.214 3367.132 0.076 0.076
-1275.273 233.234 -3095.979 -4999.847 -4999.847 1866.255 5000.000 -4999.847 70.268 5000.000 30.594 -1376.745 0.076 -4154.498 -2768.673 -4999.847 5000.000 1687.572 0.076 -4999.847 2099.107 3734.569 5000.000 321.584 3706.798 2893.797 5000.000 -2966.583 -1167.697 -4999.847 3351.568 3354.467 0.076 0.076
-1268.559 240.864 -3090.333 -4999.847 -4999.847 1876.173 5000.000 -4999.847 73.320 5000.000 35.325 -1376.898 0.076 -4154.955 -2765.469 -4999.847 5000.000 1687.877 0.076 -4999.847 2104.448 3736.706 5000.000 313.039 3706.493 2894.713 5000.000 -2980.621 -1168.917 -4999.847 3338.903 3338.292 0.076 0.076
-1257.725 253.834 -3083.619 -4999.847 -4999.847 1889.601 5000.000 -4999.847 75.456 5000.000 40.970 -1376.440 0.076 -4159.228 -2760.281 -4999.847 5000.000 1688.029 0.076 -4999.847 2110.094 3738.994 5000.000 298.238 3706.340 2897.154 5000.000 -2999.542 -1169.680 -4999.847 3323.033 3318.914 0.076 0.076
-1248.722 263.142 -3079.652 -4999.847 -4999.847 1900.740 5000.000 -4999.847 76.219 5000.000 46.464 -1377.661 0.076 -4161.975 -2756.924 -4999.847 5000.000 1691.081 0.076 -4999.847 2114.214 3741.894 5000.000 286.488 3706.340 2899.748 5000.000 -3013.886 -1173.037 -4999.847 3309.453 3301.823 0.076 0.076
-1244.297 267.262 -3077.058 -4999.847 -4999.847 1903.639 5000.000 -4999.847 77.897 5000.000 49.516 -1377.203 0.076 -4161.364 -2755.703 -4999.847 5000.000 1690.471 0.076 -4999.847 2115.740 3744.793 5000.000 282.521 3708.019 2900.816 5000.000 -3023.041 -1173.037 -4999.847 3302.281 3290.379 0.076 0.076
-1246.586 266.041 -3077.516 -4999.847 -4999.847 1901.350 5000.000 -4999.847 77.745 5000.000 45.396 -1377.508 0.076 -4159.838 -2757.534 -4999.847 5000.000 1693.370 0.076 -4999.847 2115.434 3742.199 5000.000 285.267 3709.544 2901.122 5000.000 -3028.382 -1170.443 -4999.847 3301.365 3286.412 0.076 0.076
-1250.858 259.785 -3080.568 -4999.847 -4999.847 1895.247 5000.000 -4999.847 77.897 5000.000 40.665 -1375.677 0.076 -4157.091 -2759.060 -4999.847 5000.000 1699.626 0.076 -4999.847 2113.908 3738.842 5000.000 293.049 3710.002 2900.358 5000.000 -3026.398 -1167.849 -4999.847 3307.469 3288.090 0.076 0.076
-1259.403 248.798 -3084.077 -4999.847 -4999.847 1883.497 5000.000 -4999.847 75.608 5000.000 32.120 -1375.982 0.076 -4155.260 -2761.349 -4999.847 5000.000 1708.629 0.076 -4999.847 2107.652 3734.417 5000.000 306.325 3708.171 2898.680 5000.000 -3020.447 -1165.560 -4999.847 3315.404 3295.262 0.076 0.076
-1267.643 239.948 -3088.350 -4999.847 -4999.847 1872.053 5000.000 -4999.847 75.608 5000.000 24.948 -1375.677 0.076 -4149.310 -2766.079 -4999.847 5000.000 1712.901 0.076 -4999.847 2102.770 3728.923 5000.000 316.701 3707.256 2897.307 5000.000 -3017.395 -1163.424 -4999.847 3323.033 3299.840 0.076 0.076
-1269.932 237.659 -3089.265 -4999.847 -4999.847 1868.391 5000.000 -4999.847 75.761 5000.000 21.134 -1374.456 0.076 -4148.241 -2767.452 -4999.847 5000.000 1715.953 0.076 -4999.847 2102.464 3727.245 5000.000 320.821 3708.171 2897.154 5000.000 -3019.226 -1162.051 -4999.847 3324.102 3298.314 0.076 0.076
-1268.559 239.338 -3087.587 -4999.847 -4999.847 1871.290 5000.000 -4999.847 76.219 5000.000 19.913 -1375.525 0.076 -4147.326 -2766.079 -4999.847 5000.000 1717.937 0.076 -4999.847 2103.227 3727.855 5000.000 320.211 3708.629 2897.154 5000.000 -3025.635 -1161.746 -4999.847 3321.050 3290.684 0.076 0.076
-1260.166 245.594 -3083.162 -4999.847 -4999.847 1878.767 5000.000 -4999.847 77.134 5000.000 24.186 -1375.677 0.076 -4148.852 -2762.875 -4999.847 5000.000 1714.733 0.076 -4999.847 2105.974 3731.365 5000.000 311.055 3708.934 2899.901 5000.000 -3036.164 -1161.746 -4999.847 3311.437 3277.867 0.076 0.076
-1251.011 255.817 -3079.652 -4999.847 -4999.847 1891.432 5000.000 -4999.847 79.118 5000.000 30.594 -1376.135 0.076 -4151.446 -2759.365 -4999.847 5000.000 1708.171 0.076 -4999.847 2111.925 3734.875 5000.000 298.848 3710.307 2902.647 5000.000 -3051.118 -1165.103 -4999.847 3298.466 3261.387 0.076 0.076
-1241.550 266.499 -3073.854 -4999.847 -4999.847 1903.639 5000.000 -4999.847 80.949 5000.000 35.782 -1376.440 0.076 -4154.040 -2756.008 -4999.847 5000.000 1704.814 0.076 -4999.847 2117.266 3740.368 5000.000 283.589 3709.239 2904.479 5000.000 -3065.919 -1167.849 -4999.847 3283.818 3243.381 0.076 0.076
-1237.125 271.839 -3071.107 -4999.847 -4999.847 1909.132 5000.000 -4999.847 83.391 5000.000 35.782 -1378.271 0.076 -4155.413 -2751.583 -4999.847 5000.000 1703.136 0.076 -4999.847 2121.233 3742.351 5000.000 277.790 3708.781 2906.615 5000.000 -3074.616 -1168.307 -4999.847 3275.883 3232.547 0.076 0.076
-1237.278 271.992 -3071.107 -4999.847 -4999.847 1907.912 5000.000 -4999.847 84.001 5000.000 30.594 -1376.898 0.076 -4152.819 -2752.499 -4999.847 5000.000 1704.509 0.076 -4999.847 2122.606 3741.741 5000.000 277.638 3711.375 2906.920 5000.000 -3077.058 -1167.697 -4999.847 3278.630 3229.496 0.076 0.076
-1242.161 266.957 -3073.854 -4999.847 -4999.847 1902.571 5000.000 -4999.847 83.391 5000.000 24.338 -1375.982 0.076 -4149.767 -2754.177 -4999.847 5000.000 1707.408 0.076 -4999.847 2120.470 3741.436 5000.000 287.404 3712.291 2907.225 5000.000 -3075.532 -1165.713 -4999.847 3283.970 3233.310 0.076 0.076
-1250.858 257.801 -3076.753 -4999.847 -4999.847 1893.873 5000.000 -4999.847 82.780 5000.000 15.335 -1376.287 0.076 -4147.479 -2757.687 -4999.847 5000.000 1713.817 0.076 -4999.847 2115.740 3737.316 5000.000 299.306 3713.054 2906.920 5000.000 -3068.818 -1161.135 -4999.847 3291.600 3241.703 0.076 0.076
-1256.657 248.341 -3079.957 -4999.847 -4999.847 1883.192 5000.000 -4999.847 81.712 5000.000 6.943 -1375.372 0.076 -4142.595 -2760.891 -4999.847 5000.000 1717.632 0.076 -4999.847 2111.467 3733.654 5000.000 311.666 3713.664 2904.326 5000.000 -3062.409 -1158.236 -4999.847 3302.586 3250.706 0.076 0.076
-1260.319 243.000 -3080.873 -4999.847 -4999.847 1874.952 5000.000 -4999.847 82.628 5000.000 -0.687 -1375.830 0.076 -4139.238 -2763.485 -4999.847 5000.000 1721.141 0.076 -4999.847 2108.720 3731.517 5000.000 318.227 3713.817 2904.479 5000.000 -3060.883 -1158.236 -4999.847 3308.690 3254.368 0.076 0.076
-1259.098 243.305 -3081.025 -4999.847 -4999.847 1878.157 5000.000 -4999.847 83.543 5000.000 -8.621 -1375.525 0.076 -4138.781 -2762.875 -4999.847 5000.000 1722.820 0.076 -4999.847 2111.467 3731.517 5000.000 318.379 3714.580 2905.394 5000.000 -3062.867 -1156.710 -4999.847 3307.774 3250.553 0.076 0.076
-1254.215 248.951 -3077.210 -4999.847 -4999.847 1883.497 5000.000 -4999.847 85.222 5000.000 -10.452 -1376.135 0.076 -4140.307 -2760.433 -4999.847 5000.000 1722.820 0.076 -4999.847 2114.977 3733.043 5000.000 310.903 3713.664 2906.615 5000.000 -3071.412 -1158.236 -4999.847 3299.382 3240.482 0.076 0.076
-1245.975 257.496 -3072.480 -4999.847 -4999.847 1893.110 5000.000 -4999.847 86.290 5000.000 -5.417 -1377.813 0.076 -4142.138 -2757.534 -4999.847 5000.000 1710.460 0.076 -4999.847 2119.707 3738.079 5000.000 299.001 3715.038 2908.293 5000.000 -3084.077 -1159.762 -4999.847 3288.396 3227.970 0.076 0.076
-1237.735 267.414 -3069.886 -4999.847 -4999.847 1904.402 5000.000 -4999.847 87.053 5000.000 8.011 -1378.881 0.076 -4146.105 -2753.872 -4999.847 5000.000 1710.613 0.076 -4999.847 2124.285 3743.114 5000.000 286.030 3715.343 2907.988 5000.000 -3098.268 -1162.814 -4999.847 3275.578 3211.490 0.076 0.076
-1233.463 272.908 -3068.513 -4999.847 -4999.847 1912.032 5000.000 -4999.847 87.510 5000.000 33.341 -1382.086 0.076 -4149.462 -2752.193 -4999.847 5000.000 1719.768 0.076 -4999.847 2128.099 3744.335 5000.000 276.570 3713.359 2909.361 5000.000 -3108.491 -1166.629 -4999.847 3264.591 3198.978 0.076 0.076
-1233.921 273.671 -3068.208 -4999.847 -4999.847 1912.184 5000.000 -4999.847 87.510 5000.000 44.785 -1382.544 0.076 -4149.462 -2751.736 -4999.847 5000.000 1719.005 0.076 -4999.847 2127.794 3742.809 5000.000 275.959 3714.275 2911.192 5000.000 -3112.459 -1166.781 -4999.847 3262.760 3196.536 0.076 0.076
-1236.515 269.245 -3068.360 -4999.847 -4999.847 1906.538 5000.000 -4999.847 88.273 5000.000 37.766 -1381.323 0.076 -4147.021 -2753.719 -4999.847 5000.000 1713.970 0.076 -4999.847 2128.099 3741.283 5000.000 281.147 3713.664 2911.192 5000.000 -3111.696 -1165.865 -4999.847 3269.322 3199.740 0.076 0.076
-1242.771 259.785 -3070.039 -4999.847 -4999.847 1898.909 5000.000 -4999.847 87.053 5000.000 28.153 -1380.865 0.076 -4141.985 -2756.008 -4999.847 5000.000 1712.291 0.076 -4999.847 2124.895 3738.689 5000.000 292.134 3714.885 2908.141 5000.000 -3105.135 -1162.356 -4999.847 3277.562 3207.980 0.076 0.076
-1251.011 252.003 -3074.006 -4999.847 -4999.847 1886.396 5000.000 -4999.847 88.579 5000.000 22.049 -1378.119 0.076 -4138.781 -2758.755 -4999.847 5000.000 1712.444 0.076 -4999.847 2119.860 3734.111 5000.000 305.409 3715.495 2907.988 5000.000 -3096.590 -1158.999 -4999.847 3288.701 3218.967 0.076 0.076
-1255.741 244.984 -3077.058 -4999.847 -4999.847 1879.072 5000.000 -4999.847 87.816 5000.000 22.660 -1378.424 0.076 -4134.813 -2761.349 -4999.847 5000.000 1713.512 0.076 -4999.847 2117.571 3731.517 5000.000 313.191 3717.326 2906.310 5000.000 -3091.707 -1156.863 -4999.847 3296.330 3225.071 0.076 0.076
-1257.572 243.610 -3077.058 -4999.847 -4999.847 1880.446 5000.000 -4999.847 87.816 5000.000 31.052 -1378.119 0.076 -4134.203 -2760.891 -4999.847 5000.000 1709.392 0.076 -4999.847 2116.808 3730.754 5000.000 315.022 3716.869 2906.462 5000.000 -3094.301 -1156.252 -4999.847 3295.720 3223.697 0.076 0.076
-1250.553 249.104 -3074.311 -4999.847 -4999.847 1882.734 5000.000 -4999.847 89.799 5000.000 45.548 -1378.119 0.076 -4134.966 -2760.128 -4999.847 5000.000 1705.425 0.076 -4999.847 2120.623 3733.654 5000.000 308.309 3716.716 2906.767 5000.000 -3103.609 -1158.846 -4999.847 3290.379 3214.389 0.076 0.076
-1245.212 255.970 -3070.954 -4999.847 -4999.847 1890.516 5000.000 -4999.847 89.036 5000.000 57.603 -1378.729 0.076 -4138.628 -2756.771 -4999.847 5000.000 1701.457 0.076 -4999.847 2124.590 3737.163 5000.000 299.458 3715.801 2909.209 5000.000 -3113.222 -1160.067 -4999.847 3281.834 3205.539 0.076 0.076
-1236.667 266.499 -3066.224 -4999.847 -4999.847 1905.165 5000.000 -4999.847 91.173 5000.000 57.298 -1379.034 0.076 -4140.917 -2753.261 -4999.847 5000.000 1697.032 0.076 -4999.847 2131.151 3740.368 5000.000 286.488 3716.106 2911.040 5000.000 -3127.413 -1162.203 -4999.847 3268.864 3190.738 0.076 0.076
-1230.259 274.281 -3063.783 -4999.847 -4999.847 1914.473 5000.000 -4999.847 92.851 5000.000 58.976 -1380.255 0.076 -4144.884 -2749.752 -4999.847 5000.000 1693.217 0.076 -4999.847 2136.187 3744.335 5000.000 276.722 3715.495 2913.481 5000.000 -3138.399 -1163.882 -4999.847 3260.166 3179.904 0.076 0.076
-1227.665 278.248 -3061.952 -4999.847 -4999.847 1915.846 5000.000 -4999.847 91.325 5000.000 62.333 -1379.339 0.076 -4144.274 -2750.973 -4999.847 5000.000 1690.318 0.076 -4999.847 2138.170 3747.082 5000.000 273.671 3716.716 2913.481 5000.000 -3144.808 -1166.018 -4999.847 3256.657 3176.394 0.076 0.076
-1230.106 274.128 -3063.783 -4999.847 -4999.847 1912.184 5000.000 -4999.847 92.241 5000.000 64.622 -1379.492 0.076 -4143.206 -2751.736 -4999.847 5000.000 1691.691 0.076 -4999.847 2137.407 3743.419 5000.000 278.706 3717.021 2913.176 5000.000 -3142.367 -1163.577 -4999.847 3260.319 3178.073 0.076 0.076
-1236.362 265.278 -3066.072 -4999.847 -4999.847 1904.250 5000.000 -4999.847 91.783 5000.000 58.366 -1379.187 0.076 -4140.307 -2754.330 -4999.847 5000.000 1695.659 0.076 -4999.847 2134.966 3742.351 5000.000 288.319 3717.326 2911.650 5000.000 -3138.399 -1162.356 -4999.847 3268.711 3188.449 0.076 0.076
-1247.654 254.902 -3070.344 -4999.847 -4999.847 1894.026 5000.000 -4999.847 90.867 5000.000 53.788 -1378.119 0.076 -4136.645 -2757.076 -4999.847 5000.000 1700.847 0.076 -4999.847 2129.473 3737.163 5000.000 302.052 3718.547 2910.124 5000.000 -3127.718 -1159.304 -4999.847 3279.545 3199.740 0.076 0.076
-1252.232 248.798 -3072.480 -4999.847 -4999.847 1884.108 5000.000 -4999.847 91.020 5000.000 45.396 -1376.440 0.076 -4133.135 -2760.281 -4999.847 5000.000 1701.915 0.076 -4999.847 2126.726 3733.501 5000.000 309.377 3718.242 2908.446 5000.000 -3122.988 -1156.557 -4999.847 3289.769 3209.659 0.076 0.076
-1254.521 246.357 -3073.854 -4999.847 -4999.847 1881.514 5000.000 -4999.847 90.867 5000.000 49.668 -1377.661 0.076 -4132.067 -2761.349 -4999.847 5000.000 1701.305 0.076 -4999.847 2124.285 3732.891 5000.000 312.581 3718.242 2908.293 5000.000 -3123.750 -1154.879 -4999.847 3291.447 3211.490 0.076 0.076
-1252.079 250.324 -3072.633 -4999.847 -4999.847 1884.871 5000.000 -4999.847 91.020 5000.000 53.178 -1377.966 0.076 -4131.609 -2762.112 -4999.847 5000.000 1699.474 0.076 -4999.847 2128.099 3733.806 5000.000 307.088 3717.784 2908.904 5000.000 -3129.244 -1156.863 -4999.847 3287.327 3206.302 0.076 0.076
-1245.823 255.360 -3068.666 -4999.847 -4999.847 1892.958 5000.000 -4999.847 91.630 5000.000 57.145 -1378.729 0.076 -4134.355 -2760.128 -4999.847 5000.000 1695.811 0.076 -4999.847 2132.219 3737.926 5000.000 298.848 3719.005 2910.735 5000.000 -3139.162 -1158.236 -4999.847 3277.714 3195.468 0.076 0.076
-1236.362 267.262 -3063.935 -4999.847 -4999.847 1905.165 5000.000 -4999.847 93.004 5000.000 62.638 -1380.255 0.076 -4138.628 -2754.787 -4999.847 5000.000 1688.487 0.076 -4999.847 2137.713 3741.436 5000.000 286.793 3717.784 2913.786 5000.000 -3153.658 -1162.051 -4999.847 3265.659 3181.735 0.076 0.076
-1229.953 273.060 -3059.968 -4999.847 -4999.847 1915.694 5000.000 -4999.847 93.156 5000.000 71.641 -1380.865 0.076 -4142.290 -2750.667 -4999.847 5000.000 1683.604 0.076 -4999.847 2143.816 3745.250 5000.000 275.959 3717.632 2913.939 5000.000 -3166.171 -1164.950 -4999.847 3255.436 3170.138 0.076 0.076
-1226.444 274.891 -3058.747 -4999.847 -4999.847 1920.272 5000.000 -4999.847 94.835 5000.000 72.251 -1380.865 0.076 -4142.900 -2749.905 -4999.847 5000.000 1681.163 0.076 -4999.847 2146.868 3747.539 5000.000 270.008 3718.242 2917.144 5000.000 -3173.800 -1165.560 -4999.847 3249.637 3165.560 0.076 0.076
-1226.902 273.671 -3059.663 -4999.847 -4999.847 1918.288 5000.000 -4999.847 95.140 5000.000 70.726 -1380.560 0.076 -4140.154 -2751.736 -4999.847 5000.000 1680.858 0.076 -4999.847 2144.427 3746.166 5000.000 271.687 3718.700 2917.144 5000.000 -3173.342 -1163.729 -4999.847 3252.079 3166.934 0.076 0.076
-1234.684 266.346 -3062.409 -4999.847 -4999.847 1909.438 5000.000 -4999.847 94.835 5000.000 69.505 -1379.644 0.076 -4137.865 -2753.109 -4999.847 5000.000 1683.146 0.076 -4999.847 2141.527 3743.877 5000.000 279.469 3719.768 2915.465 5000.000 -3165.865 -1161.288 -4999.847 3260.777 3175.784 0.076 0.076
-1243.076 255.817 -3066.682 -4999.847 -4999.847 1898.604 5000.000 -4999.847 92.393 5000.000 63.706 -1378.729 0.076 -4134.203 -2756.771 -4999.847 5000.000 1688.029 0.076 -4999.847 2137.102 3739.605 5000.000 291.829 3720.378 2913.023 5000.000 -3158.236 -1158.541 -4999.847 3271.305 3186.923 0.076 0.076
-1250.706 247.425 -3069.734 -4999.847 -4999.847 1888.838 5000.000 -4999.847 91.478 5000.000 62.638 -1378.576 0.076 -4130.693 -2760.433 -4999.847 5000.000 1692.302 0.076 -4999.847 2131.762 3737.926 5000.000 301.289 3719.005 2911.803 5000.000 -3151.217 -1155.795 -4999.847 3281.071 3196.841 0.076 0.076
-1254.978 243.000 -3071.565 -4999.847 -4999.847 1883.192 5000.000 -4999.847 91.173 5000.000 63.401 -1379.034 0.076 -4129.931 -2763.485 -4999.847 5000.000 1694.438 0.076 -4999.847 2130.693 3734.417 5000.000 304.189 3719.463 2911.498 5000.000 -3147.707 -1154.421 -4999.847 3285.038 3202.182 0.076 0.076
-1252.537 243.915 -3070.954 -4999.847 -4999.847 1884.413 5000.000 -4999.847 91.020 5000.000 65.385 -1379.339 0.076 -4128.557 -2762.417 -4999.847 5000.000 1693.675 0.076 -4999.847 2130.083 3735.790 5000.000 303.273 3719.310 2910.429 5000.000 -3152.132 -1155.337 -4999.847 3282.750 3199.435 0.076 0.076
-1246.738 248.493 -3068.971 -4999.847 -4999.847 1891.737 5000.000 -4999.847 91.936 5000.000 70.420 -1379.644 0.076 -4131.609 -2760.128 -4999.847 5000.000 1690.776 0.076 -4999.847 2135.576 3738.231 5000.000 294.575 3718.700 2911.650 5000.000 -3162.966 -1156.252 -4999.847 3275.273 3189.975 0.076 0.076
-1238.956 257.801 -3065.003 -4999.847 -4999.847 1903.334 5000.000 -4999.847 91.478 5000.000 76.524 -1380.865 0.076 -4136.645 -2756.466 -4999.847 5000.000 1684.825 0.076 -4999.847 2140.459 3742.046 5000.000 281.910 3718.395 2915.007 5000.000 -3174.563 -1158.846 -4999.847 3263.218 3177.157 0.076 0.076
-1231.479 266.499 -3060.578 -4999.847 -4999.847 1913.863 5000.000 -4999.847 93.919 5000.000 83.543 -1381.475 0.076 -4139.696 -2753.567 -4999.847 5000.000 1679.637 0.076 -4999.847 2145.952 3745.708 5000.000 270.314 3718.547 2917.296 5000.000 -3187.533 -1162.814 -4999.847 3251.316 3164.797 0.076 0.076
-1226.291 272.145 -3057.221 -4999.847 -4999.847 1919.203 5000.000 -4999.847 94.835 5000.000 86.137 -1381.628 0.076 -4139.849 -2752.956 -4999.847 5000.000 1676.738 0.076 -4999.847 2149.157 3747.997 5000.000 261.921 3718.547 2917.449 5000.000 -3196.841 -1162.966 -4999.847 3244.907 3156.557 0.076 0.076
-1227.359 270.314 -3057.069 -4999.847 -4999.847 1918.288 5000.000 -4999.847 95.293 5000.000 85.222 -1381.323 0.076 -4140.764 -2752.499 -4999.847 5000.000 1675.975 0.076 -4999.847 2150.073 3747.082 5000.000 261.921 3719.615 2918.364 5000.000 -3198.825 -1163.271 -4999.847 3245.670 3156.405 0.076 0.076
-1232.395 263.752 -3060.883 -4999.847 -4999.847 1912.032 5000.000 -4999.847 94.072 5000.000 83.391 -1381.628 0.076 -4138.170 -2754.177 -4999.847 5000.000 1678.416 0.076 -4999.847 2146.410 3744.945 5000.000 270.008 3718.242 2917.601 5000.000 -3193.790 -1161.135 -4999.847 3251.469 3164.340 0.076 0.076
-1241.245 254.902 -3065.461 -4999.847 -4999.847 1902.266 5000.000 -4999.847 94.682 5000.000 81.407 -1379.644 0.076 -4134.508 -2757.534 -4999.847 5000.000 1682.994 0.076 -4999.847 2141.833 3741.283 5000.000 281.300 3718.395 2916.380 5000.000 -3184.939 -1158.236 -4999.847 3261.845 3174.563 0.076 0.076
-1248.264 244.984 -3068.666 -4999.847 -4999.847 1891.127 5000.000 -4999.847 94.072 5000.000 77.592 -1379.492 0.076 -4131.762 -2760.739 -4999.847 5000.000 1686.198 0.076 -4999.847 2136.950 3737.469 5000.000 292.287 3719.768 2916.380 5000.000 -3176.852 -1155.032 -4999.847 3272.374 3185.092 0.076 0.076
-1251.163 240.253 -3070.191 -4999.847 -4999.847 1885.481 5000.000 -4999.847 92.241 5000.000 75.151 -1379.950 0.076 -4130.236 -2762.112 -4999.847 5000.000 1688.182 0.076 -4999.847 2134.661 3735.790 5000.000 297.322 3720.226 2915.770 5000.000 -3173.953 -1151.827 -4999.847 3277.714 3190.585 0.076 0.076
-1251.316 240.711 -3070.191 -4999.847 -4999.847 1885.786 5000.000 -4999.847 91.478 5000.000 76.982 -1380.102 0.076 -4127.642 -2761.959 -4999.847 5000.000 1686.198 0.076 -4999.847 2133.898 3735.943 5000.000 296.712 3719.921 2915.770 5000.000 -3176.242 -1152.590 -4999.847 3277.867 3189.975 0.076 0.076
-1248.875 244.678 -3067.903 -4999.847 -4999.847 1892.042 5000.000 -4999.847 92.546 5000.000 82.475 -1379.644 0.076 -4130.846 -2760.433 -4999.847 5000.000 1683.604 0.076 -4999.847 2137.713 3738.079 5000.000 291.981 3718.395 2916.838 5000.000 -3186.160 -1152.590 -4999.847 3270.848 3183.413 0.076 0.076
-1240.330 253.986 -3063.935 -4999.847 -4999.847 1900.587 5000.000 -4999.847 92.546 5000.000 91.478 -1379.950 0.076 -4133.135 -2758.907 -4999.847 5000.000 1680.400 0.076 -4999.847 2141.680 3741.131 5000.000 281.300 3717.479 2918.364 5000.000 -3198.062 -1155.642 -4999.847 3260.777 3170.291 0.076 0.076
-1231.327 261.158 -3061.646 -4999.847 -4999.847 1912.947 5000.000 -4999.847 93.767 5000.000 101.091 -1380.102 0.076 -4138.476 -2756.008 -4999.847 5000.000 1678.263 0.076 -4999.847 2147.784 3746.166 5000.000 268.177 3715.495 2921.416 5000.000 -3214.237 -1159.152 -4999.847 3248.569 3156.100 0.076 0.076
-1226.444 267.720 -3057.679 -4999.847 -4999.847 1920.729 5000.000 -4999.847 93.919 5000.000 106.889 -1380.102 0.076 -4141.375 -2753.567 -4999.847 5000.000 1678.263 0.076 -4999.847 2153.277 3747.844 5000.000 260.853 3714.122 2921.416 5000.000 -3225.681 -1161.288 -4999.847 3239.872 3147.860 0.076 0.076
-1228.733 266.804 -3057.221 -4999.847 -4999.847 1919.509 5000.000 -4999.847 93.462 5000.000 112.078 -1381.933 0.076 -4142.138 -2753.719 -4999.847 5000.000 1684.672 0.076 -4999.847 2154.498 3747.997 5000.000 261.616 3712.138 2921.569 5000.000 -3229.190 -1161.440 -4999.847 3239.567 3147.097 0.076 0.076
-1234.226 259.937 -3061.188 -4999.847 -4999.847 1912.337 5000.000 -4999.847 93.309 5000.000 112.993 -1381.781 0.076 -4140.307 -2758.297 -4999.847 5000.000 1693.522 0.076 -4999.847 2153.582 3745.861 5000.000 268.177 3713.512 2921.263 5000.000 -3228.122 -1160.067 -4999.847 3244.602 3153.048 0.076 0.076
-1242.466 251.240 -3067.445 -4999.847 -4999.847 1901.198 5000.000 -4999.847 91.325 5000.000 111.925 -1381.018 0.076 -4137.865 -2760.891 -4999.847 5000.000 1706.645 0.076 -4999.847 2148.852 3741.131 5000.000 279.164 3712.901 2918.212 5000.000 -3220.950 -1156.863 -4999.847 3254.368 3162.814 0.076 0.076
-1252.995 240.101 -3072.175 -4999.847 -4999.847 1886.854 5000.000 -4999.847 89.189 5000.000 108.721 -1381.170 0.076 -4134.203 -2765.927 -4999.847 5000.000 1740.368 0.076 -4999.847 2141.833 3733.959 5000.000 291.829 3713.054 2914.397 5000.000 -3213.626 -1154.269 -4999.847 3266.575 3175.021 0.076 0.076
-1261.387 233.082 -3077.363 -4999.847 -4999.847 1879.377 5000.000 -4999.847 86.442 5000.000 106.584 -1382.849 0.076 -4132.677 -2770.962 -4999.847 5000.000 1772.869 0.076 -4999.847 2138.933 3730.297 5000.000 300.984 3711.833 2913.634 5000.000 -3210.269 -1152.438 -4999.847 3273.136 3184.024 0.076 0.076
-1262.608 230.488 -3077.210 -4999.847 -4999.847 1878.767 5000.000 -4999.847 85.679 5000.000 110.552 -1383.307 0.076 -4130.999 -2770.962 -4999.847 5000.000 1769.207 0.076 -4999.847 2139.849 3731.365 5000.000 304.646 3712.901 2914.397 5000.000 -3212.863 -1152.590 -4999.847 3274.662 3183.261 0.076 0.076
-1258.488 234.607 -3074.006 -4999.847 -4999.847 1882.734 5000.000 -4999.847 85.832 5000.000 117.723 -1381.781 0.076 -4132.982 -2769.894 -4999.847 5000.000 1765.698 0.076 -4999.847 2142.595 3733.501 5000.000 300.069 3711.528 2914.092 5000.000 -3224.002 -1153.964 -4999.847 3271.458 3177.157 0.076 0.076
-1251.163 242.542 -3071.260 -4999.847 -4999.847 1892.500 5000.000 -4999.847 87.968 5000.000 127.947 -1382.391 0.076 -4136.797 -2767.147 -4999.847 5000.000 1756.390 0.076 -4999.847 2147.021 3736.095 5000.000 291.066 3710.613 2915.923 5000.000 -3239.872 -1156.710 -4999.847 3260.319 3166.018 0.076 0.076
-1240.787 253.376 -3066.224 -4999.847 -4999.847 1904.707 5000.000 -4999.847 89.647 5000.000 140.154 -1382.696 0.076 -4139.849 -2762.112 -4999.847 5000.000 1731.060 0.076 -4999.847 2152.667 3742.809 5000.000 279.316 3711.375 2918.517 5000.000 -3259.861 -1160.525 -4999.847 3247.349 3153.200 0.076 0.076
-1233.921 260.853 -3061.494 -4999.847 -4999.847 1914.321 5000.000 -4999.847 90.105 5000.000 149.920 -1383.001 0.076 -4142.748 -2759.060 -4999.847 5000.000 1716.106 0.076 -4999.847 2156.939 3747.997 5000.000 270.161 3709.697 2921.874 5000.000 -3276.188 -1161.898 -4999.847 3237.430 3142.824 0.076 0.076
-1231.937 262.074 -3060.426 -4999.847 -4999.847 1917.525 5000.000 -4999.847 90.410 5000.000 154.650 -1381.018 0.076 -4142.748 -2759.365 -4999.847 5000.000 1712.749 0.076 -4999.847 2159.075 3749.218 5000.000 268.788 3711.223 2920.348 5000.000 -3286.107 -1164.187 -4999.847 3235.447 3140.688 0.076 0.076
-1237.278 257.649 -3063.325 -4999.847 -4999.847 1912.337 5000.000 -4999.847 90.410 5000.000 156.939 -1380.102 0.076 -4140.459 -2759.670 -4999.847 5000.000 1703.899 0.076 -4999.847 2157.244 3748.150 5000.000 275.349 3712.444 2920.806 5000.000 -3285.038 -1162.814 -4999.847 3241.703 3146.334 0.076 0.076
-1245.518 248.798 -3066.682 -4999.847 -4999.847 1902.724 5000.000 -4999.847 90.257 5000.000 155.566 -1378.576 0.076 -4135.119 -2762.722 -4999.847 5000.000 1688.029 0.076 -4999.847 2152.972 3746.319 5000.000 289.082 3714.427 2918.669 5000.000 -3282.139 -1158.694 -4999.847 3253.910 3158.236 0.076 0.076
-1253.757 238.727 -3072.480 -4999.847 -4999.847 1889.906 5000.000 -4999.847 88.426 5000.000 152.667 -1378.729 0.076 -4129.931 -2766.842 -4999.847 5000.000 1679.789 0.076 -4999.847 2148.547 3742.809 5000.000 304.646 3715.801 2917.296 5000.000 -3273.442 -1153.658 -4999.847 3268.253 3172.274 0.076 0.076
-1261.234 230.945 -3077.058 -4999.847 -4999.847 1879.988 5000.000 -4999.847 86.900 5000.000 149.920 -1379.492 0.076 -4126.878 -2770.962 -4999.847 5000.000 1697.490 0.076 -4999.847 2141.222 3739.300 5000.000 315.785 3717.632 2915.770 5000.000 -3270.085 -1150.759 -4999.847 3278.782 3183.108 0.076 0.076
-1263.828 228.351 -3077.821 -4999.847 -4999.847 1876.478 5000.000 -4999.847 85.374 5000.000 151.446 -1378.271 0.076 -4124.742 -2771.725 -4999.847 5000.000 1700.847 0.076 -4999.847 2139.239 3738.231 5000.000 319.905 3717.632 2916.991 5000.000 -3274.968 -1150.759 -4999.847 3281.224 3188.144 0.076 0.076
-1261.082 231.250 -3076.753 -4999.847 -4999.847 1882.277 5000.000 -4999.847 87.816 5000.000 155.566 -1378.424 0.076 -4126.573 -2768.826 -4999.847 5000.000 1695.201 0.076 -4999.847 2140.001 3740.063 5000.000 315.328 3717.479 2918.364 5000.000 -3288.548 -1151.522 -4999.847 3276.646 3183.566 0.076 0.076
-1254.368 237.812 -3072.633 -4999.847 -4999.847 1890.669 5000.000 -4999.847 88.579 5000.000 163.806 -1377.508 0.076 -4128.557 -2767.147 -4999.847 5000.000 1695.506 0.076 -4999.847 2142.748 3743.572 5000.000 305.562 3716.106 2918.669 5000.000 -3307.469 -1154.421 -4999.847 3266.880 3173.037 0.076 0.076
-1245.212 248.493 -3067.445 -4999.847 -4999.847 1903.792 5000.000 -4999.847 88.426 5000.000 172.808 -1375.067 0.076 -4131.914 -2764.553 -4999.847 5000.000 1692.912 0.076 -4999.847 2146.715 3749.981 5000.000 291.066 3715.953 2920.195 5000.000 -3332.494 -1161.135 -4999.847 3252.842 3159.304 0.076 0.076
-1237.125 257.496 -3062.715 -4999.847 -4999.847 1915.694 5000.000 -4999.847 90.715 5000.000 180.438 -1374.151 0.076 -4135.424 -2760.739 -4999.847 5000.000 1686.808 0.076 -4999.847 2150.073 3753.796 5000.000 280.842 3714.732 2921.111 5000.000 -3359.655 -1164.797 -4999.847 3240.330 3147.097 0.076 0.076
-1233.463 259.480 -3060.426 -4999.847 -4999.847 1920.272 5000.000 -4999.847 91.936 5000.000 185.168 -1372.167 0.076 -4135.271 -2759.518 -4999.847 5000.000 1675.517 0.076 -4999.847 2152.514 3755.779 5000.000 275.959 3714.122 2921.874 5000.000 -3376.898 -1164.645 -4999.847 3235.447 3142.367 0.076 0.076
-1236.362 256.886 -3062.257 -4999.847 -4999.847 1917.372 5000.000 -4999.847 91.478 5000.000 184.100 -1368.200 0.076 -4132.677 -2760.739 -4999.847 5000.000 1665.599 0.076 -4999.847 2150.835 3755.627 5000.000 279.469 3715.801 2921.874 5000.000 -3374.304 -1163.882 -4999.847 3236.820 3146.944 0.076 0.076
-1244.449 249.104 -3066.224 -4999.847 -4999.847 1907.301 5000.000 -4999.847 90.105 5000.000 181.048 -1371.099 0.076 -4129.473 -2763.638 -4999.847 5000.000 1659.037 0.076 -4999.847 2147.936 3752.728 5000.000 290.303 3716.869 2921.263 5000.000 -3359.502 -1161.746 -4999.847 3247.501 3158.083 0.076 0.076
-1254.673 237.507 -3071.870 -4999.847 -4999.847 1894.331 5000.000 -4999.847 86.442 5000.000 175.402 -1372.015 0.076 -4123.827 -2768.826 -4999.847 5000.000 1664.530 0.076 -4999.847 2143.664 3750.286 5000.000 303.120 3718.700 2919.432 5000.000 -3344.091 -1158.083 -4999.847 3261.082 3173.342 0.076 0.076
-1263.218 227.893 -3077.210 -4999.847 -4999.847 1883.955 5000.000 -4999.847 83.696 5000.000 168.383 -1372.625 0.076 -4118.792 -2773.098 -4999.847 5000.000 1670.024 0.076 -4999.847 2138.781 3746.776 5000.000 314.412 3721.447 2917.906 5000.000 -3332.189 -1154.269 -4999.847 3271.916 3186.923 0.076 0.076
-1266.880 224.536 -3078.584 -4999.847 -4999.847 1878.767 5000.000 -4999.847 82.170 5000.000 166.705 -1370.947 0.076 -4116.960 -2773.861 -4999.847 5000.000 1673.381 0.076 -4999.847 2138.018 3744.640 5000.000 318.837 3721.294 2918.212 5000.000 -3330.510 -1152.132 -4999.847 3275.578 3193.332 0.076 0.076
-1266.117 224.231 -3080.262 -4999.847 -4999.847 1881.056 5000.000 -4999.847 82.475 5000.000 169.604 -1370.489 0.076 -4118.028 -2774.472 -4999.847 5000.000 1677.043 0.076 -4999.847 2139.544 3746.471 5000.000 315.175 3720.836 2919.432 5000.000 -3333.257 -1153.811 -4999.847 3273.747 3192.874 0.076 0.076
-1259.556 229.877 -3076.295 -4999.847 -4999.847 1887.465 5000.000 -4999.847 83.391 5000.000 175.402 -1369.879 0.076 -4118.944 -2772.793 -4999.847 5000.000 1670.939 0.076 -4999.847 2142.443 3751.507 5000.000 306.020 3721.599 2919.890 5000.000 -3345.617 -1156.100 -4999.847 3263.523 3182.956 0.076 0.076
-1250.553 240.406 -3071.412 -4999.847 -4999.847 1901.808 5000.000 -4999.847 84.306 5000.000 184.405 -1368.200 0.076 -4123.979 -2768.978 -4999.847 5000.000 1667.430 0.076 -4999.847 2144.274 3756.237 5000.000 291.829 3719.768 2920.806 5000.000 -3363.775 -1160.220 -4999.847 3248.264 3172.122 0.076 0.076
-1241.703 250.629 -3065.919 -4999.847 -4999.847 1913.863 5000.000 -4999.847 85.679 5000.000 192.035 -1368.658 0.076 -4126.878 -2765.927 -4999.847 5000.000 1667.277 0.076 -4999.847 2149.462 3761.120 5000.000 277.333 3718.547 2922.942 5000.000 -3381.475 -1165.865 -4999.847 3232.853 3160.677 0.076 0.076
-1238.346 254.444 -3063.172 -4999.847 -4999.847 1920.272 5000.000 -4999.847 86.290 5000.000 194.934 -1369.268 0.076 -4129.625 -2765.164 -4999.847 5000.000 1672.618 0.076 -4999.847 2150.530 3764.019 5000.000 269.093 3717.784 2922.942 5000.000 -3388.952 -1169.375 -4999.847 3224.613 3158.541 0.076 0.076
-1238.651 252.308 -3064.240 -4999.847 -4999.847 1917.525 5000.000 -4999.847 85.679 5000.000 194.171 -1370.489 0.076 -4128.100 -2766.995 -4999.847 5000.000 1681.620 0.076 -4999.847 2147.936 3763.409 5000.000 270.161 3717.326 2922.789 5000.000 -3387.121 -1169.985 -4999.847 3227.207 3164.797 0.076 0.076
-1247.501 244.221 -3069.276 -4999.847 -4999.847 1908.980 5000.000 -4999.847 84.001 5000.000 188.983 -1370.642 0.076 -4122.911 -2770.352 -4999.847 5000.000 1696.422 0.076 -4999.847 2144.732 3762.341 5000.000 278.706 3720.226 2920.653 5000.000 -3380.560 -1167.391 -4999.847 3234.378 3179.446 0.076 0.076
-1257.420 234.455 -3076.142 -4999.847 -4999.847 1897.230 5000.000 -4999.847 82.170 5000.000 182.116 -1374.151 0.076 -4118.486 -2775.235 -4999.847 5000.000 1705.882 0.076 -4999.847 2138.628 3759.289 5000.000 291.066 3721.141 2920.653 5000.000 -3364.385 -1162.509 -4999.847 3247.196 3194.858 0.076 0.076
-1266.728 223.468 -3081.788 -4999.847 -4999.847 1884.718 5000.000 -4999.847 77.897 5000.000 173.571 -1376.287 0.076 -4114.061 -2778.134 -4999.847 5000.000 1722.667 0.076 -4999.847 2135.882 3757.305 5000.000 302.968 3723.583 2918.822 5000.000 -3349.889 -1158.846 -4999.847 3262.150 3202.487 0.076 0.076
-1272.526 218.280 -3084.535 -4999.847 -4999.847 1876.936 5000.000 -4999.847 77.745 5000.000 171.740 -1379.492 0.076 -4109.941 -2781.338 -4999.847 5000.000 1737.926 0.076 -4999.847 2134.813 3757.458 5000.000 309.529 3726.024 2919.890 5000.000 -3341.039 -1153.811 -4999.847 3270.237 3186.007 0.076 0.076
-1269.932 220.569 -3081.788 -4999.847 -4999.847 1879.683 5000.000 -4999.847 79.728 5000.000 174.487 -1377.356 0.076 -4107.194 -2778.744 -4999.847 5000.000 1741.741 0.076 -4999.847 2135.882 3762.341 5000.000 307.698 3729.076 2922.026 5000.000 -3340.581 -1151.827 -4999.847 3270.848 3127.718 0.076 0.076
-1260.777 230.335 -3075.227 -4999.847 -4999.847 1892.042 5000.000 -4999.847 84.611 5000.000 182.574 -1373.388 0.076 -4105.363 -2773.404 -4999.847 5000.000 1752.117 0.076 -4999.847 2142.443 3760.052 5000.000 300.984 3730.754 2925.994 5000.000 -3344.854 -1153.658 -4999.847 3264.439 3021.668 0.076 0.076
-1247.196 245.136 -3064.851 -4999.847 -4999.847 1907.454 5000.000 -4999.847 91.630 5000.000 193.256 -1368.658 0.076 -4105.668 -2765.621 -4999.847 5000.000 1768.139 0.076 -4999.847 2151.904 3762.646 5000.000 288.777 3733.043 2931.487 5000.000 -3352.636 -1153.353 -4999.847 3254.521 2877.165 0.076 0.076
-1231.632 259.480 -3054.322 -4999.847 -4999.847 1927.138 5000.000 -4999.847 97.887 5000.000 206.989 -1364.385 0.076 -4105.211 -2758.145 -4999.847 5000.000 1777.295 0.076 -4999.847 2160.143 3774.548 5000.000 274.586 3735.180 2938.201 5000.000 -3363.622 -1153.658 -4999.847 3242.466 2727.169 0.076 0.076
-1222.782 270.161 -3045.472 -4999.847 -4999.847 1939.956 5000.000 -4999.847 102.464 5000.000 217.517 -1359.503 0.076 -4104.448 -2751.888 -4999.847 5000.000 1784.161 0.076 -4999.847 2168.231 3782.025 5000.000 265.583 3739.757 2942.779 5000.000 -3369.726 -1153.658 -4999.847 3236.209 2598.535 0.076 0.076
-1218.967 273.976 -3041.352 -4999.847 -4999.847 1942.702 5000.000 -4999.847 107.195 5000.000 220.111 -1356.603 0.076 -4100.175 -2748.226 -4999.847 5000.000 1782.635 0.076 -4999.847 2173.114 3786.297 5000.000 264.668 3743.725 2946.898 5000.000 -3370.184 -1150.454 -4999.847 3240.177 2493.095 0.076 0.076
-1221.714 270.314 -3041.810 -4999.847 -4999.847 1939.345 5000.000 -4999.847 109.483 5000.000 218.433 -1354.162 0.076 -4092.546 -2746.853 -4999.847 5000.000 1786.297 0.076 -4999.847 2174.487 3789.197 5000.000 270.619 3749.981 2948.577 5000.000 -3358.282 -1144.198 -4999.847 3250.706 2412.985 0.076 0.076
-1228.733 262.226 -3045.014 -4999.847 -4999.847 1929.274 5000.000 -4999.847 112.840 5000.000 214.771 -1352.636 0.076 -4085.527 -2746.548 -4999.847 5000.000 1794.232 0.076 -4999.847 2175.402 3787.671 5000.000 279.164 3753.948 2951.629 5000.000 -3339.361 -1137.942 -4999.847 3267.185 2345.541 0.076 0.076
-1236.515 253.071 -3048.066 -4999.847 -4999.847 1918.135 5000.000 -4999.847 111.620 5000.000 208.057 -1350.042 0.076 -4077.592 -2746.242 -4999.847 5000.000 1801.404 0.076 -4999.847 2173.266 3785.229 5000.000 285.878 3760.357 2953.460 5000.000 -3322.423 -1129.244 -4999.847 3286.107 2279.011 0.076 0.076
-1240.787 248.798 -3050.050 -4999.847 -4999.847 1913.863 5000.000 -4999.847 114.824 5000.000 205.615 -1348.211 0.076 -4070.725 -2745.937 -4999.847 5000.000 1800.946 0.076 -4999.847 2174.029 3785.229 5000.000 285.725 3765.850 2956.512 5000.000 -3310.216 -1121.920 -4999.847 3298.009 2210.040 0.076 0.076
-1238.193 250.935 -3047.913 -4999.847 -4999.847 1914.473 5000.000 -4999.847 117.418 5000.000 206.531 -1346.227 0.076 -4067.674 -2744.564 -4999.847 5000.000 1802.014 0.076 -4999.847 2176.776 3790.417 5000.000 277.333 3769.512 2959.106 5000.000 -3307.774 -1120.546 -4999.847 3301.671 2144.732 0.076 0.076
-1230.869 259.327 -3041.810 -4999.847 -4999.847 1921.950 5000.000 -4999.847 119.402 5000.000 212.329 -1343.175 0.076 -4066.758 -2740.749 -4999.847 5000.000 1801.862 0.076 -4999.847 2182.422 3793.622 5000.000 255.207 3770.123 2962.310 5000.000 -3309.911 -1122.682 -4999.847 3296.940 2072.099 0.076 0.076
-1219.425 271.382 -3033.875 -4999.847 -4999.847 1938.582 5000.000 -4999.847 123.064 5000.000 221.027 -1339.818 0.076 -4067.826 -2734.035 -4999.847 5000.000 1798.047 0.076 -4999.847 2188.525 3796.521 5000.000 223.011 3771.649 2965.667 5000.000 -3318.914 -1124.971 -4999.847 3285.954 1995.651 0.076 0.076
-1207.523 285.573 -3024.872 -4999.847 -4999.847 1953.841 5000.000 -4999.847 128.862 5000.000 231.556 -1335.851 0.076 -4070.420 -2728.695 -4999.847 5000.000 1801.251 0.076 -4999.847 2196.155 3802.014 5000.000 186.694 3770.581 2969.329 5000.000 -3333.715 -1127.871 -4999.847 3272.374 1921.950 0.076 0.076
-1198.215 294.728 -3018.463 -4999.847 -4999.847 1965.896 5000.000 -4999.847 131.456 5000.000 238.727 -1333.257 0.076 -4071.946 -2723.506 -4999.847 5000.000 1808.270 0.076 -4999.847 2201.648 3807.660 5000.000 152.972 3771.801 2971.771 5000.000 -3344.701 -1132.296 -4999.847 3262.455 1859.388 0.076 0.076
-1195.773 296.864 -3016.175 -4999.847 -4999.847 1968.643 5000.000 -4999.847 133.288 5000.000 241.627 -1332.036 0.076 -4070.115 -2721.675 -4999.847 5000.000 1818.189 0.076 -4999.847 2204.852 3808.423 5000.000 125.353 3772.717 2972.839 5000.000 -3344.091 -1131.228 -4999.847 3262.608 1808.270 0.076 0.076
-1198.978 293.355 -3017.548 -4999.847 -4999.847 1963.455 5000.000 -4999.847 132.677 5000.000 236.744 -1331.121 0.076 -4066.758 -2721.523 -4999.847 5000.000 1828.565 0.076 -4999.847 2204.547 3808.575 5000.000 109.331 3775.006 2974.060 5000.000 -3334.478 -1128.786 -4999.847 3271.763 1768.292 0.076 0.076
-1208.896 283.742 -3023.194 -4999.847 -4999.847 1949.874 5000.000 -4999.847 130.999 5000.000 229.267 -1332.494 0.076 -4063.706 -2724.422 -4999.847 5000.000 1840.620 0.076 -4999.847 2202.106 3805.981 5000.000 115.434 3778.210 2973.602 5000.000 -3315.251 -1125.124 -4999.847 3289.311 1739.452 0.076 0.076
-1221.561 269.703 -3030.823 -4999.847 -4999.847 1936.446 5000.000 -4999.847 129.168 5000.000 219.806 -1335.088 0.076 -4057.603 -2728.237 -4999.847 5000.000 1852.064 0.076 -4999.847 2196.307 3799.725 5000.000 116.808 3781.719 2972.839 5000.000 -3291.905 -1119.173 -4999.847 3307.164 1724.651 0.076 0.076
-1227.665 262.837 -3035.553 -4999.847 -4999.847 1926.680 5000.000 -4999.847 129.015 5000.000 213.397 -1335.088 0.076 -4050.889 -2730.068 -4999.847 5000.000 1861.829 0.076 -4999.847 2194.476 3797.589 5000.000 71.031 3784.619 2972.839 5000.000 -3270.390 -1114.290 -4999.847 3319.677 1713.970 0.076 0.076
-1228.275 260.853 -3034.333 -4999.847 -4999.847 1924.239 5000.000 -4999.847 129.931 5000.000 213.245 -1332.799 0.076 -4050.278 -2730.373 -4999.847 5000.000 1868.238 0.076 -4999.847 2195.697 3800.641 5000.000 2.365 3786.908 2975.280 5000.000 -3258.488 -1113.222 -4999.847 3321.202 1700.694 0.076 0.076
-1224.308 265.888 -3030.671 -4999.847 -4999.847 1929.580 5000.000 -4999.847 132.677 5000.000 216.144 -1331.273 0.076 -4049.515 -2727.932 -4999.847 5000.000 1870.375 0.076 -4999.847 2198.749 3807.202 5000.000 -70.115 3788.281 2976.196 5000.000 -3252.842 -1113.985 -4999.847 3308.537 1686.503 0.076 0.076
-1214.542 276.112 -3023.651 -4999.847 -4999.847 1942.702 5000.000 -4999.847 135.729 5000.000 223.011 -1329.595 0.076 -4053.788 -2724.117 -4999.847 5000.000 1870.375 0.076 -4999.847 2202.411 3814.374 5000.000 -140.002 3787.976 2978.942 5000.000 -3257.267 -1117.494 -4999.847 3281.834 1669.413 0.076 0.076
-1202.182 291.371 -3015.259 -4999.847 -4999.847 1957.809 5000.000 -4999.847 140.002 5000.000 233.997 -1329.747 0.076 -4056.992 -2718.166 -4999.847 5000.000 1868.238 0.076 -4999.847 2207.294 3820.020 5000.000 -203.479 3787.823 2982.757 5000.000 -3273.442 -1123.140 -4999.847 3242.924 1658.885 0.076 0.076
-1191.196 302.663 -3006.561 -4999.847 -4999.847 1971.694 5000.000 -4999.847 144.732 5000.000 242.237 -1325.475 0.076 -4059.586 -2712.062 -4999.847 5000.000 1868.391 0.076 -4999.847 2214.008 3828.412 5000.000 -250.782 3787.823 2984.741 5000.000 -3296.483 -1126.345 -4999.847 3200.503 1649.271 0.076 0.076
-1185.702 311.208 -3000.916 -4999.847 -4999.847 1979.629 5000.000 -4999.847 148.852 5000.000 248.035 -1322.118 0.076 -4056.840 -2706.721 -4999.847 5000.000 1872.663 0.076 -4999.847 2217.823 3837.110 5000.000 -285.420 3791.028 2988.250 5000.000 -3328.527 -1125.734 -4999.847 3157.626 1645.914 0.076 0.076
-1183.871 313.802 -2997.864 -4999.847 -4999.847 1978.866 5000.000 -4999.847 153.582 5000.000 249.104 -1316.625 0.076 -4049.210 -2702.144 -4999.847 5000.000 1881.361 0.076 -4999.847 2221.179 3842.145 5000.000 -305.867 3797.894 2993.744 5000.000 -3379.187 -1118.868 -4999.847 3114.443 1648.203 0.076 0.076
-1186.007 313.497 -2995.880 -4999.847 -4999.847 1976.272 5000.000 -4999.847 159.380 5000.000 250.782 -1308.843 0.076 -4038.834 -2697.719 -4999.847 5000.000 1894.636 0.076 -4999.847 2225.757 3848.249 5000.000 -308.614 3807.355 3000.763 5000.000 -3468.604 -1107.729 -4999.847 3068.818 1650.187 0.076 0.076
-1187.533 311.055 -2993.438 -4999.847 -4999.847 1971.389 5000.000 -4999.847 166.247 5000.000 250.629 -1300.603 0.076 -4024.186 -2691.920 -4999.847 5000.000 1913.405 0.076 -4999.847 2230.488 3856.947 5000.000 -300.679 3820.630 3010.529 5000.000 -3602.884 -1092.164 -4999.847 3021.057 1650.645 0.076 0.076
-1184.634 312.734 -2989.776 -4999.847 -4999.847 1970.016 5000.000 -4999.847 174.639 5000.000 252.918 -1290.990 0.076 -4009.689 -2684.596 -4999.847 5000.000 1931.868 0.076 -4999.847 2237.964 3867.170 5000.000 -288.014 3834.516 3019.379 5000.000 -3792.553 -1076.448 -4999.847 2972.229 1665.293 0.076 0.076
-1177.005 324.025 -2979.400 -4999.847 -4999.847 1976.577 5000.000 -4999.847 186.694 5000.000 261.158 -1279.240 0.076 -3994.125 -2673.304 -4999.847 5000.000 1946.670 0.076 -4999.847 2248.341 3881.361 5000.000 -277.028 3848.249 3032.654 5000.000 -4033.188 -1061.036 -4999.847 2924.315 1648.661 0.076 0.076
-1162.814 341.115 -2965.209 -4999.847 -4999.847 1991.989 5000.000 -4999.847 201.038 5000.000 274.891 -1265.965 0.076 -3981.460 -2659.876 -4999.847 5000.000 1963.302 0.076 -4999.847 2261.158 3895.857 5000.000 -269.551 3862.135 3046.387 5000.000 -4299.000 -1049.287 -4999.847 2882.963 1606.393 0.076 0.076
-1142.214 364.614 -2947.204 -4999.847 -4999.847 2015.183 5000.000 -4999.847 214.771 5000.000 295.186 -1251.316 0.076 -3970.931 -2643.702 -4999.847 5000.000 1976.730 0.076 -4999.847 2277.943 3914.321 5000.000 -266.957 3873.274 3059.815 5000.000 -4601.129 -1041.505 -4999.847 2842.832 1560.006 0.076 0.076
-1118.257 389.181 -2925.383 -4999.847 -4999.847 2042.496 5000.000 -4999.847 230.335 5000.000 316.701 -1237.430 0.076 -3963.455 -2626.154 -4999.847 5000.000 1991.073 0.076 -4999.847 2294.118 3931.868 5000.000 -263.905 3883.345 3075.074 5000.000 -4925.688 -1034.638 -4999.847 2788.052 1509.651 0.076 0.076
-1096.284 414.359 -2907.835 -4999.847 -4999.847 2066.453 5000.000 -4999.847 245.136 5000.000 336.233 -1225.071 0.076 -3957.503 -2610.437 -4999.847 5000.000 2003.738 0.076 -4999.847 2309.072 3948.501 5000.000 -258.259 3891.890 3087.434 5000.000 -4999.847 -1028.229 -4999.847 2724.117 1460.365 0.076 0.076
-1084.382 429.618 -2896.086 -4999.847 -4999.847 2080.949 5000.000 -4999.847 256.428 5000.000 347.982 -1215.915 0.076 -3951.400 -2600.824 -4999.847 5000.000 2016.861 0.076 -4999.847 2318.379 3963.149 5000.000 -248.951 3899.062 3096.895 5000.000 -4999.847 -1023.194 -4999.847 2660.945 1423.133 0.076 0.076
-1076.753 436.332 -2890.440 -4999.847 -4999.847 2085.527 5000.000 -4999.847 264.668 5000.000 353.780 -1207.523 0.076 -3941.024 -2593.042 -4999.847 5000.000 2031.510 0.076 -4999.847 2325.094 3970.474 5000.000 -229.267 3906.996 3104.829 5000.000 -4999.847 -1014.496 -4999.847 2603.876 1394.293 0.076 0.076
-1079.042 435.569 -2888.762 -4999.847 -4999.847 2082.322 5000.000 -4999.847 269.245 5000.000 352.102 -1201.877 0.076 -3930.190 -2589.837 -4999.847 5000.000 2046.006 0.076 -4999.847 2328.450 3975.052 5000.000 -203.479 3915.694 3112.001 5000.000 -4999.847 -1002.441 -4999.847 2551.385 1364.996 0.076 0.076
-1085.298 426.261 -2891.051 -4999.847 -4999.847 2073.777 5000.000 -4999.847 271.534 5000.000 348.287 -1197.146 0.076 -3919.966 -2588.769 -4999.847 5000.000 2061.112 0.076 -4999.847 2329.519 3976.883 5000.000 -176.623 3922.865 3115.969 5000.000 -4999.847 -991.607 -4999.847 2510.033 1341.802 0.076 0.076
-1093.080 417.868 -2894.102 -4999.847 -4999.847 2062.180 5000.000 -4999.847 269.551 5000.000 342.336 -1194.705 0.076 -3911.879 -2588.769 -4999.847 5000.000 2077.439 0.076 -4999.847 2328.298 3977.340 5000.000 -150.835 3926.680 3118.410 5000.000 -4999.847 -981.994 -4999.847 2469.749 1328.679 0.076 0.076
-1097.353 410.391 -2897.612 -4999.847 -4999.847 2056.687 5000.000 -4999.847 271.382 5000.000 337.606 -1193.332 0.076 -3909.285 -2590.295 -4999.847 5000.000 2088.579 0.076 -4999.847 2326.162 3981.765 5000.000 -129.320 3928.817 3120.241 5000.000 -4999.847 -977.722 -4999.847 2430.991 1317.998 0.076 0.076
-1095.521 408.865 -2896.849 -4999.847 -4999.847 2057.145 5000.000 -4999.847 271.992 5000.000 335.927 -1191.501 0.076 -3909.743 -2590.143 -4999.847 5000.000 2098.955 0.076 -4999.847 2326.162 3984.054 5000.000 -115.587 3927.443 3121.614 5000.000 -4999.847 -977.874 -4999.847 2409.323 1301.366 0.076 0.076
-1092.622 411.765 -2894.713 -4999.847 -4999.847 2062.791 5000.000 -4999.847 272.755 5000.000 338.979 -1193.027 0.076 -3913.558 -2589.837 -4999.847 5000.000 2105.516 0.076 -4999.847 2327.382 3986.190 5000.000 -109.178 3924.239 3119.478 5000.000 -4999.847 -983.673 -4999.847 2409.018 1281.529 0.076 0.076
-1082.704 422.141 -2887.236 -4999.847 -4999.847 2077.134 5000.000 -4999.847 274.586 5000.000 345.693 -1191.958 0.076 -3919.814 -2585.412 -4999.847 5000.000 2113.756 0.076 -4999.847 2330.434 3991.836 5000.000 -101.091 3921.187 3121.462 5000.000 -4999.847 -988.861 -4999.847 2407.950 1259.861 0.076 0.076
-1072.023 434.043 -2878.080 -4999.847 -4999.847 2091.478 5000.000 -4999.847 277.790 5000.000 353.170 -1189.822 0.076 -3923.781 -2580.224 -4999.847 5000.000 2123.217 0.076 -4999.847 2335.012 4000.229 5000.000 -93.767 3918.288 3122.988 5000.000 -4999.847 -994.049 -4999.847 2401.694 1227.207 0.076 0.076
-1066.072 439.689 -2874.723 -4999.847 -4999.847 2100.023 5000.000 -4999.847 278.859 5000.000 356.069 -1188.449 0.076 -3927.443 -2578.698 -4999.847 5000.000 2135.576 0.076 -4999.847 2337.606 4005.264 5000.000 -76.677 3915.541 3121.767 5000.000 -4999.847 -998.474 -4999.847 2404.135 1192.874 0.076 0.076
-1069.734 437.247 -2877.012 -4999.847 -4999.847 2095.750 5000.000 -4999.847 276.875 5000.000 352.560 -1191.653 0.076 -3928.817 -2581.903 -4999.847 5000.000 2148.394 0.076 -4999.847 2334.554 4005.417 5000.000 -47.532 3913.710 3122.225 5000.000 -4999.847 -999.084 -4999.847 2414.816 1167.086 0.076 0.076
-1078.889 428.092 -2884.336 -4999.847 -4999.847 2084.611 5000.000 -4999.847 271.229 5000.000 341.878 -1194.247 0.076 -3931.105 -2587.701 -4999.847 5000.000 2163.500 0.076 -4999.847 2328.298 3999.771 5000.000 -9.689 3911.269 3117.647 5000.000 -4999.847 -999.847 -4999.847 2434.348 1150.912 0.076 0.076
-1093.385 413.291 -2896.086 -4999.847 -4999.847 2068.284 5000.000 -4999.847 264.820 5000.000 328.908 -1198.978 0.076 -3930.648 -2594.568 -4999.847 5000.000 2180.438 0.076 -4999.847 2320.973 3997.024 5000.000 32.273 3908.369 3113.985 5000.000 -4999.847 -997.253 -4999.847 2460.288 1139.162 0.076 0.076
-1107.729 398.489 -2906.767 -4999.847 -4999.847 2051.041 5000.000 -4999.847 259.174 5000.000 313.802 -1203.250 0.076 -3928.511 -2602.960 -4999.847 5000.000 2197.070 0.076 -4999.847 2314.260 3993.362 5000.000 76.829 3905.928 3108.491 5000.000 -4999.847 -995.270 -4999.847 2491.112 1128.481 0.076 0.076
-1119.783 388.113 -2915.160 -4999.847 -4999.847 2036.698 5000.000 -4999.847 254.292 5000.000 302.205 -1209.201 0.076 -3930.037 -2609.369 -4999.847 5000.000 2214.923 0.076 -4999.847 2306.020 3987.411 5000.000 114.519 3902.571 3104.677 5000.000 -4999.847 -994.659 -4999.847 2512.016 1119.478 0.076 0.076
-1123.140 384.146 -2917.906 -4999.847 -4999.847 2031.662 5000.000 -4999.847 248.341 5000.000 296.712 -1212.253 0.076 -3932.784 -2614.557 -4999.847 5000.000 2231.250 0.076 -4999.847 2302.510 3982.681 5000.000 141.375 3897.230 3100.404 5000.000 -4999.847 -998.779 -4999.847 2506.828 1105.745 0.076 0.076
-1121.614 384.451 -2918.822 -4999.847 -4999.847 2035.477 5000.000 -4999.847 247.578 5000.000 294.728 -1215.000 0.076 -3940.261 -2615.778 -4999.847 5000.000 2247.883 0.076 -4999.847 2299.763 3982.528 5000.000 163.958 3891.737 3095.827 5000.000 -4999.847 -1006.104 -4999.847 2479.515 1085.298 0.076 0.076
-1117.494 392.081 -2917.144 -4999.847 -4999.847 2041.733 5000.000 -4999.847 244.221 5000.000 293.812 -1217.899 0.076 -3949.111 -2616.541 -4999.847 5000.000 2258.869 0.076 -4999.847 2299.458 3984.054 5000.000 179.370 3885.328 3092.622 5000.000 -4999.847 -1014.343 -4999.847 2448.691 1055.848 0.076 0.076
-1112.459 399.557 -2914.397 -4999.847 -4999.847 2051.346 5000.000 -4999.847 242.695 5000.000 294.728 -1221.866 0.076 -3960.403 -2615.930 -4999.847 5000.000 2267.567 0.076 -4999.847 2300.221 3982.681 5000.000 199.359 3875.715 3088.502 5000.000 -4999.847 -1025.788 -4999.847 2412.833 1016.175 0.076 0.076
-1112.001 400.778 -2915.160 -4999.847 -4999.847 2054.398 5000.000 -4999.847 238.575 5000.000 288.930 -1226.902 0.076 -3971.237 -2619.287 -4999.847 5000.000 2272.450 0.076 -4999.847 2295.949 3979.324 5000.000 230.030 3866.102 3081.941 5000.000 -4999.847 -1037.690 -4999.847 2365.835 977.569 0.076 0.076
-1127.413 386.130 -2929.503 -4999.847 -4999.847 2041.123 5000.000 -4999.847 222.858 5000.000 270.008 -1243.992 0.076 -3987.564 -2634.241 -4999.847 5000.000 2267.109 0.076 -4999.847 2279.927 3962.081 5000.000 245.289 3850.996 3067.140 5000.000 -4999.847 -1052.186 -4999.847 2323.415 934.997 0.076 0.076
-1193.332 320.668 -2994.659 -4999.847 -4999.847 1972.763 5000.000 -4999.847 162.280 5000.000 201.495 -1303.197 0.076 -4044.327 -2694.972 -4999.847 5000.000 2217.212 0.076 -4999.847 2218.585 3897.383 5000.000 209.735 3791.791 3005.646 5000.000 -3665.904 -1108.949 -4999.847 2273.823 859.770 0.076 0.076
-1275.425 239.490 -3072.938 -4999.847 -4999.847 1887.770 5000.000 -4999.847 86.595 5000.000 118.181 -1376.287 0.076 -4112.078 -2769.131 -4999.847 5000.000 2157.244 0.076 -4999.847 2142.901 3820.172 5000.000 170.520 3720.226 2932.402 5000.000 -1592.508 -1176.547 -4999.847 2239.338 783.627 0.076 0.076
-1293.431 218.738 -3085.603 -4999.847 -4999.847 1867.628 5000.000 -4999.847 79.423 5000.000 98.192 -1384.222 0.076 -4115.740 -2779.812 -4999.847 5000.000 2159.228 0.076 -4999.847 2131.609 3807.050 5000.000 226.520 3715.190 2923.247 5000.000 -1418.097 -1176.547 -4999.847 2261.616 787.900 0.076 0.076
-1304.112 209.888 -3094.453 -4999.847 -4999.847 1854.047 5000.000 -4999.847 75.151 5000.000 84.306 -1387.427 0.076 -4115.129 -2784.695 -4999.847 5000.000 2165.332 0.076 -4999.847 2125.200 3798.199 5000.000 306.020 3713.054 2920.958 5000.000 -1402.075 -1175.479 -4999.847 2277.180 804.685 0.076 0.076
-1312.505 201.343 -3102.693 -4999.847 -4999.847 1845.350 5000.000 -4999.847 68.284 5000.000 71.489 -1393.988 0.076 -4122.454 -2791.104 -4999.847 5000.000 2164.569 0.076 -4999.847 2117.723 3790.417 5000.000 401.846 3706.493 2913.634 5000.000 -1359.045 -1180.514 -4999.847 2289.387 821.927 0.076 0.076
-1317.082 198.291 -3107.271 -4999.847 -4999.847 1841.688 5000.000 -4999.847 61.112 5000.000 60.960 -1401.312 0.076 -4131.457 -2796.139 -4999.847 5000.000 2163.348 0.076 -4999.847 2111.009 3782.940 5000.000 520.104 3697.642 2905.394 5000.000 -1357.214 -1189.517 -4999.847 2306.325 843.442 0.076 0.076
-1319.066 197.833 -3110.933 -4999.847 -4999.847 1843.976 5000.000 -4999.847 55.772 5000.000 50.278 -1411.231 0.076 -4145.495 -2801.633 -4999.847 5000.000 2156.481 0.076 -4999.847 2105.669 3773.785 5000.000 664.759 3684.520 2896.849 5000.000 -1337.682 -1203.403 -4999.847 2305.562 873.198 0.076 0.076
-1319.677 198.291 -3113.375 -4999.847 -4999.847 1846.876 5000.000 -4999.847 47.837 5000.000 40.665 -1419.776 0.076 -4162.890 -2807.431 -4999.847 5000.000 2146.715 0.076 -4999.847 2097.886 3765.240 5000.000 830.472 3671.550 2885.863 5000.000 -1316.625 -1221.714 -4999.847 2304.188 925.078 0.076 0.076
-1325.475 193.408 -3122.072 -4999.847 -4999.847 1843.061 5000.000 -4999.847 37.156 5000.000 24.491 -1433.509 0.076 -4181.811 -2817.349 -4999.847 5000.000 2133.440 0.076 -4999.847 2087.053 3752.728 5000.000 1043.641 3653.696 2871.672 5000.000 -1329.747 -1239.414 -4999.847 2333.181 1031.128 0.076 0.076
-1347.448 171.130 -3145.724 -4999.847 -4999.847 1823.224 5000.000 -4999.847 15.183 5000.000 -6.332 -1458.839 0.076 -4207.141 -2839.933 -4999.847 5000.000 2106.432 0.076 -4999.847 2063.096 3726.940 5000.000 1440.528 3627.909 2846.189 5000.000 -1372.167 -1265.965 -4999.847 2503.624 1143.587 0.076 0.076
-1393.072 126.726 -3188.449 -4999.847 -4999.847 1776.379 5000.000 -4999.847 -25.559 5000.000 -60.349 -1498.970 0.076 -4246.814 -2881.895 -4999.847 5000.000 2063.859 0.076 -4999.847 2019.455 3684.367 5000.000 2274.891 3588.083 2806.210 5000.000 -1448.768 -1301.366 -4999.847 2858.854 1124.666 0.076 0.076
-1434.729 84.154 -3227.970 -4999.847 -4999.847 1731.823 5000.000 -4999.847 -59.281 5000.000 -113.146 -1532.235 0.076 -4276.112 -2916.838 -4999.847 5000.000 2030.289 0.076 -4999.847 1984.665 3647.898 5000.000 2863.584 3556.649 2772.488 5000.000 -1546.578 -1328.527 -4999.847 3291.295 1113.069 0.076 0.076
-1451.972 63.859 -3241.550 -4999.847 -4999.847 1711.223 5000.000 -4999.847 -68.437 5000.000 -139.391 -1540.474 0.076 -4277.485 -2926.451 -4999.847 5000.000 2019.150 0.076 -4999.847 1975.204 3637.674 5000.000 2782.254 3551.919 2764.706 5000.000 -1625.315 -1329.747 -4999.847 3676.280 1131.685 0.076 0.076
-1472.877 44.938 -3257.725 -4999.847 -4999.847 1687.877 5000.000 -4999.847 -79.423 5000.000 -146.258 -1552.071 0.076 -4286.335 -2940.795 -4999.847 5000.000 2001.450 0.076 -4999.847 1963.455 3624.247 5000.000 2739.986 3543.832 2753.261 5000.000 -1632.792 -1335.088 -4999.847 4013.504 1156.252 0.076 0.076
-1483.558 33.494 -3267.490 -4999.847 -4999.847 1677.043 5000.000 -4999.847 -87.358 5000.000 -149.004 -1558.785 0.076 -4293.507 -2948.272 -4999.847 5000.000 1987.259 0.076 -4999.847 1955.215 3613.413 5000.000 2711.299 3538.186 2747.463 5000.000 -1569.314 -1339.055 -4999.847 4141.527 1187.991 0.076 0.076
-1485.695 32.883 -3271.153 -4999.847 -4999.847 1674.906 5000.000 -4999.847 -91.630 5000.000 -148.394 -1562.753 0.076 -4299.000 -2953.155 -4999.847 5000.000 1966.201 0.076 -4999.847 1951.247 3608.377 5000.000 2687.190 3528.267 2739.528 5000.000 -1480.201 -1346.380 -4999.847 4209.277 1205.234 0.076 0.076
-1482.948 34.562 -3270.085 -4999.847 -4999.847 1678.721 5000.000 -4999.847 -95.140 5000.000 -144.427 -1568.551 0.076 -4308.309 -2954.833 -4999.847 5000.000 1945.449 0.076 -4999.847 1952.316 3607.462 5000.000 2708.400 3523.232 2736.782 5000.000 -1449.073 -1354.772 -4999.847 4216.754 1218.662 0.076 0.076
-1475.013 43.259 -3267.033 -4999.847 -4999.847 1689.860 5000.000 -4999.847 -96.666 5000.000 -138.018 -1571.450 0.076 -4317.006 -2953.155 -4999.847 5000.000 1918.288 0.076 -4999.847 1952.773 3607.309 5000.000 2753.109 3518.501 2734.340 5000.000 -1455.634 -1361.334 -4999.847 4209.125 1236.973 0.076 0.076
-1464.637 54.093 -3260.471 -4999.847 -4999.847 1701.915 5000.000 -4999.847 -93.767 5000.000 -127.489 -1570.077 0.076 -4322.194 -2949.188 -4999.847 5000.000 1893.110 0.076 -4999.847 1955.062 3607.004 5000.000 2746.395 3515.755 2733.730 5000.000 -1432.898 -1366.674 -4999.847 4179.064 1237.583 0.076 0.076
-1457.313 63.554 -3252.079 -4999.847 -4999.847 1710.918 5000.000 -4999.847 -87.205 5000.000 -116.960 -1565.499 0.076 -4321.736 -2943.542 -4999.847 5000.000 1886.091 0.076 -4999.847 1960.708 3611.124 5000.000 2730.068 3516.213 2736.019 5000.000 -1486.000 -1366.064 -4999.847 4143.816 1229.953 0.076 0.076
-1455.482 64.164 -3250.095 -4999.847 -4999.847 1711.528 5000.000 -4999.847 -84.001 5000.000 -113.298 -1563.363 0.076 -4318.990 -2941.405 -4999.847 5000.000 1906.844 0.076 -4999.847 1964.675 3613.718 5000.000 2704.280 3519.570 2740.444 5000.000 -1512.093 -1361.791 -4999.847 4125.658 1213.779 0.076 0.076
-1466.468 54.246 -3257.420 -4999.847 -4999.847 1700.084 5000.000 -4999.847 -88.121 5000.000 -121.996 -1568.246 0.076 -4318.837 -2946.441 -4999.847 5000.000 1951.247 0.076 -4999.847 1961.318 3611.582 5000.000 2715.114 3521.553 2738.918 5000.000 -1443.732 -1357.366 -4999.847 4112.078 1193.790 0.076 0.076
-1474.708 45.548 -3264.439 -4999.847 -4999.847 1689.708 5000.000 -4999.847 -89.494 5000.000 -127.642 -1566.873 0.076 -4314.564 -2949.188 -4999.847 5000.000 1978.561 0.076 -4999.847 1958.419 3609.750 5000.000 2752.956 3523.842 2740.596 5000.000 -1455.482 -1350.042 -4999.847 4104.448 1177.310 0.076 0.076
-1477.302 39.902 -3263.371 -4999.847 -4999.847 1684.825 5000.000 -4999.847 -84.001 5000.000 -128.252 -1562.905 0.076 -4308.003 -2947.204 -4999.847 5000.000 1947.738 0.076 -4999.847 1955.825 3608.072 5000.000 2757.382 3527.657 2744.259 5000.000 -1507.973 -1343.175 -4999.847 4124.132 1171.054 0.076 0.076
-1479.286 38.224 -3263.218 -4999.847 -4999.847 1681.010 5000.000 -4999.847 -84.306 5000.000 -129.625 -1560.006 0.076 -4304.646 -2949.035 -4999.847 5000.000 1876.326 0.076 -4999.847 1954.910 3605.478 5000.000 2772.488 3528.420 2742.275 5000.000 -1462.501 -1342.260 -4999.847 4139.238 1160.067 0.076 0.076
-1480.201 38.529 -3264.439 -4999.847 -4999.847 1680.247 5000.000 -4999.847 -84.764 5000.000 -130.999 -1561.074 0.076 -4308.309 -2949.645 -4999.847 5000.000 1801.862 0.076 -4999.847 1955.367 3605.478 5000.000 2754.482 3525.368 2740.139 5000.000 -1367.742 -1343.481 -4999.847 4170.977 1152.132 0.076 0.076
-1479.896 38.224 -3266.575 -4999.847 -4999.847 1682.383 5000.000 -4999.847 -87.816 5000.000 -132.372 -1566.720 0.076 -4317.616 -2954.375 -4999.847 5000.000 1742.962 0.076 -4999.847 1956.588 3605.936 5000.000 2765.011 3520.027 2737.240 5000.000 -1285.954 -1349.584 -4999.847 4228.656 1134.127 0.076 0.076
-1486.763 34.104 -3275.120 -4999.847 -4999.847 1678.874 5000.000 -4999.847 -102.770 5000.000 -142.901 -1583.047 0.076 -4338.063 -2966.583 -4999.847 5000.000 1684.825 0.076 -4999.847 1946.059 3593.423 5000.000 2985.351 3503.700 2724.117 5000.000 -1223.545 -1367.895 -4999.847 4360.342 1091.707 0.076 0.076
-1474.250 47.684 -3265.507 -4999.847 -4999.847 1693.065 5000.000 -4999.847 -98.497 5000.000 -133.288 -1580.758 0.076 -4340.810 -2960.937 -4999.847 5000.000 1653.391 0.076 -4999.847 1949.569 3597.085 5000.000 2815.061 3504.158 2727.321 5000.000 -1198.978 -1370.947 -4999.847 4432.975 1057.069 0.076 0.076
-1462.348 59.434 -3256.504 -4999.847 -4999.847 1707.561 5000.000 -4999.847 -91.936 5000.000 -123.980 -1575.265 0.076 -4337.606 -2951.324 -4999.847 5000.000 1640.269 0.076 -4999.847 1955.978 3603.189 5000.000 2523.613 3507.210 2731.594 5000.000 -1118.715 -1367.590 -4999.847 4460.441 1030.976 0.076 0.076
-1469.978 52.415 -3262.760 -4999.847 -4999.847 1700.084 5000.000 -4999.847 -98.192 5000.000 -132.677 -1581.063 0.076 -4344.777 -2959.411 -4999.847 5000.000 1623.331 0.076 -4999.847 1946.365 3594.491 5000.000 2748.836 3498.512 2721.523 5000.000 -1075.837 -1376.898 -4999.847 4435.721 991.607 0.076 0.076
-1478.218 43.870 -3268.864 -4999.847 -4999.847 1690.623 5000.000 -4999.847 -100.786 5000.000 -141.527 -1583.810 0.076 -4344.930 -2964.904 -4999.847 5000.000 1609.293 0.076 -4999.847 1939.193 3591.440 5000.000 2772.183 3494.087 2717.555 5000.000 -958.953 -1377.508 -4999.847 4453.879 951.324 0.076 0.076
-1483.558 38.529 -3270.542 -4999.847 -4999.847 1682.383 5000.000 -4999.847 -97.887 5000.000 -146.105 -1578.927 0.076 -4337.301 -2965.057 -4999.847 5000.000 1599.680 0.076 -4999.847 1939.651 3594.491 5000.000 2731.136 3499.733 2720.302 5000.000 -789.425 -1368.658 -4999.847 4288.777 938.811 0.076 0.076
-1429.389 90.410 -3212.558 -4999.847 -4999.847 1734.264 5000.000 -4999.847 -35.477 5000.000 -90.867 -1516.518 0.076 -4272.755 -2904.326 -4999.847 5000.000 1688.029 0.076 -4999.847 1999.619 3656.443 5000.000 2809.415 3566.262 2785.763 5000.000 -753.872 -1298.009 -4999.847 2463.188 996.338 0.076 0.076
-1427.710 92.088 -3209.812 -4999.847 -4999.847 1733.043 5000.000 -4999.847 -29.221 5000.000 -90.257 -1510.719 0.076 -4264.362 -2899.748 -4999.847 5000.000 1732.891 0.076 -4999.847 2004.501 3661.631 5000.000 2851.072 3575.723 2795.376 5000.000 -790.951 -1286.564 -4999.847 2232.624 995.575 0.076 0.076
-1431.067 86.748 -3214.694 -4999.847 -4999.847 1728.771 5000.000 -4999.847 -35.630 5000.000 -96.818 -1515.450 0.076 -4271.534 -2906.615 -4999.847 5000.000 1703.288 0.076 -4999.847 1993.667 3655.222 5000.000 2887.846 3570.077 2788.815 5000.000 -896.544 -1292.821 -4999.847 2479.667 985.656 0.076 0.076
-1426.947 91.783 -3212.711 -4999.847 -4999.847 1735.943 5000.000 -4999.847 -36.240 5000.000 -96.056 -1516.670 0.076 -4275.654 -2905.241 -4999.847 5000.000 1668.040 0.076 -4999.847 1988.327 3651.713 5000.000 2929.045 3565.804 2785.458 5000.000 -1183.108 -1299.229 -4999.847 2833.982 976.959 0.076 0.076
-1421.759 98.192 -3210.422 -4999.847 -4999.847 1743.420 5000.000 -4999.847 -39.750 5000.000 -95.598 -1523.842 0.076 -4282.979 -2907.988 -4999.847 5000.000 1646.983 0.076 -4999.847 1982.833 3648.813 5000.000 2919.890 3555.886 2778.592 5000.000 -1262.303 -1310.826 -4999.847 3139.620 963.836 0.076 0.076
-1415.045 107.500 -3206.149 -4999.847 -4999.847 1754.101 5000.000 -4999.847 -39.902 5000.000 -92.699 -1525.521 0.076 -4290.456 -2905.852 -4999.847 5000.000 1631.724 0.076 -4999.847 1987.259 3650.034 5000.000 2890.593 3551.003 2776.303 5000.000 -1258.488 -1317.540 -4999.847 3251.316 944.610 0.076 0.076
-1410.620 111.009 -3204.471 -4999.847 -4999.847 1759.899 5000.000 -4999.847 -41.123 5000.000 -91.783 -1528.267 0.076 -4296.406 -2905.394 -4999.847 5000.000 1622.721 0.076 -4999.847 1992.294 3652.781 5000.000 2851.377 3549.782 2775.845 5000.000 -1146.639 -1321.965 -4999.847 3236.515 924.163 0.076 0.076
-1407.416 112.383 -3203.403 -4999.847 -4999.847 1761.273 5000.000 -4999.847 -38.834 5000.000 -91.173 -1526.589 0.076 -4295.338 -2904.631 -4999.847 5000.000 1621.805 0.076 -4999.847 1997.177 3657.816 5000.000 2848.936 3552.224 2779.812 5000.000 -1061.799 -1317.235 -4999.847 3206.302 905.241 0.076 0.076
-1464.027 55.161 -3258.183 -4999.847 -4999.847 1702.068 5000.000 -4999.847 -94.072 5000.000 -149.615 -1578.622 0.076 -4345.541 -2958.801 -4999.847 5000.000 1562.142 0.076 -4999.847 1941.634 3602.731 5000.000 4517.967 3500.801 2725.795 5000.000 -1072.023 -1367.285 -4999.847 3140.535 833.982 0.076 0.076
-1287.327 231.098 -3078.126 -4999.847 -4999.847 1879.377 5000.000 -4999.847 92.699 5000.000 29.984 -1393.530 0.076 -4157.854 -2776.150 -4999.847 5000.000 1735.180 0.076 -4999.847 2116.808 3776.837 5000.000 180.438 3687.877 2911.498 5000.000 -902.800 -1179.141 -4999.847 3331.273 1001.068 0.076 0.076
-1258.335 258.717 -3046.998 -4999.847 -4999.847 1904.402 5000.000 -4999.847 128.710 5000.000 59.892 -1354.620 0.076 -4119.859 -2742.123 -4999.847 5000.000 1769.207 0.076 -4999.847 2150.378 3808.118 5000.000 -259.022 3723.888 2947.356 5000.000 -828.641 -1139.162 -4999.847 3375.067 1025.177 0.076 0.076
-1281.987 233.844 -3069.276 -4999.847 -4999.847 1878.614 5000.000 -4999.847 110.094 5000.000 35.630 -1372.778 0.076 -4135.881 -2762.722 -4999.847 5000.000 1747.692 0.076 -4999.847 2129.320 3788.128 5000.000 -226.215 3706.340 2928.282 5000.000 -810.941 -1155.337 -4999.847 3359.808 1008.698 0.076 0.076
-1293.583 219.501 -3083.467 -4999.847 -4999.847 1864.271 5000.000 -4999.847 96.666 5000.000 17.929 -1386.664 0.076 -4149.920 -2777.981 -4999.847 5000.000 1730.907 0.076 -4999.847 2116.808 3771.496 5000.000 -164.721 3692.760 2912.718 5000.000 -551.080 -1170.138 -4999.847 3338.903 1016.175 0.076 0.076
-1272.679 241.169 -3060.731 -4999.847 -4999.847 1887.617 5000.000 -4999.847 116.045 5000.000 38.071 -1368.353 0.076 -4133.440 -2758.450 -4999.847 5000.000 1747.082 0.076 -4999.847 2136.950 3789.044 5000.000 29.831 3708.934 2931.182 5000.000 -1138.247 -1153.658 -4999.847 3349.279 1050.507 0.076 0.076
-1112.001 403.525 -2904.173 -4999.847 -4999.847 2051.346 5000.000 -4999.847 271.077 5000.000 196.612 -1215.305 0.076 -3984.054 -2601.587 -4999.847 5000.000 1889.296 0.076 -4999.847 2293.507 3947.433 5000.000 421.073 3860.151 3084.382 5000.000 -4999.847 -1003.662 -4999.847 3493.934 1204.776 0.076 0.076
-1071.107 444.877 -2867.552 -4999.847 -4999.847 2093.156 5000.000 -4999.847 302.663 5000.000 231.861 -1183.871 0.076 -3954.757 -2566.644 -4999.847 5000.000 1901.045 0.076 -4999.847 2327.993 3984.359 5000.000 615.015 3890.669 3116.579 5000.000 -4999.847 -977.417 -4999.847 3511.635 1218.662 0.076 0.076
-1070.344 445.945 -2868.620 -4999.847 -4999.847 2097.581 5000.000 -4999.847 299.001 5000.000 228.656 -1191.501 0.076 -3962.539 -2570.001 -4999.847 5000.000 1896.620 0.076 -4999.847 2325.246 3979.934 5000.000 677.424 3883.802 3112.154 5000.000 -4999.847 -985.351 -4999.847 3495.460 1191.196 0.076 0.076
-1072.480 443.809 -2872.129 -4999.847 -4999.847 2094.224 5000.000 -4999.847 293.507 5000.000 225.910 -1195.163 0.076 -3968.032 -2574.121 -4999.847 5000.000 1871.595 0.076 -4999.847 2321.126 3974.136 5000.000 693.294 3879.377 3107.576 5000.000 -4999.847 -990.692 -4999.847 3487.373 1157.168 0.076 0.076
-1080.110 434.043 -2880.064 -4999.847 -4999.847 2085.222 5000.000 -4999.847 288.472 5000.000 215.991 -1199.741 0.076 -3972.610 -2580.835 -4999.847 5000.000 1834.058 0.076 -4999.847 2314.107 3965.896 5000.000 673.457 3873.426 3101.778 5000.000 -4999.847 -993.591 -4999.847 3485.084 1131.228 0.076 0.076
-1081.025 432.059 -2875.639 -4999.847 -4999.847 2082.322 5000.000 -4999.847 295.491 5000.000 216.754 -1191.806 0.076 -3962.234 -2575.646 -4999.847 5000.000 1837.110 0.076 -4999.847 2318.837 3962.844 5000.000 638.971 3880.751 3106.813 5000.000 -4999.847 -984.588 -4999.847 3495.460 1119.936 0.076 0.076
-1100.404 410.086 -2892.729 -4999.847 -4999.847 2058.213 5000.000 -4999.847 282.063 5000.000 199.359 -1201.572 0.076 -3969.863 -2591.363 -4999.847 5000.000 1837.110 0.076 -4999.847 2302.357 3944.076 5000.000 571.069 3869.306 3092.469 5000.000 -4999.847 -994.049 -4999.847 3487.220 1101.625 0.076 0.076
-1167.544 342.184 -2958.190 -4999.847 -4999.847 1988.022 5000.000 -4999.847 220.569 5000.000 130.388 -1261.082 0.076 -4028.916 -2655.451 -4999.847 5000.000 1790.570 0.076 -4999.847 2239.185 3880.446 5000.000 480.735 3807.355 3031.739 5000.000 -4190.051 -1052.033 -4999.847 3426.642 1050.507 0.076 0.076
-1206.149 304.036 -2995.422 -4999.847 -4999.847 1947.433 5000.000 -4999.847 183.948 5000.000 89.647 -1299.535 0.076 -4066.300 -2693.141 -4999.847 5000.000 1758.984 0.076 -4999.847 2202.106 3836.194 5000.000 427.481 3769.970 2993.591 5000.000 -3135.347 -1087.587 -4999.847 3387.427 1069.123 0.076 0.076
-1229.648 278.096 -3020.905 -4999.847 -4999.847 1924.086 5000.000 -4999.847 157.244 5000.000 64.164 -1326.696 0.076 -4093.461 -2719.234 -4999.847 5000.000 1741.131 0.076 -4999.847 2176.623 3805.066 5000.000 385.367 3743.114 2965.972 5000.000 -2927.367 -1115.206 -4999.847 3357.214 1619.058 0.076 0.076
-1184.176 322.805 -2980.316 -4999.847 -4999.847 1969.558 5000.000 -4999.847 194.934 5000.000 104.448 -1289.158 0.076 -4057.298 -2678.035 -4999.847 5000.000 1774.548 0.076 -4999.847 2218.585 3843.519 5000.000 408.560 3779.736 3004.425 5000.000 -2895.476 -1079.500 -4999.847 3387.884 514.458 0.076 0.076
-1175.631 334.096 -2974.060 -4999.847 -4999.847 1982.071 5000.000 -4999.847 197.681 5000.000 109.483 -1291.295 0.076 -4060.044 -2673.609 -4999.847 5000.000 1776.532 0.076 -4999.847 2226.062 3845.044 5000.000 393.301 3778.973 3007.477 5000.000 -2922.942 -1081.178 -4999.847 3375.677 508.202 0.076 0.076
-1174.563 336.233 -2975.738 -4999.847 -4999.847 1984.817 5000.000 -4999.847 192.645 5000.000 107.347 -1297.856 0.076 -4069.505 -2677.272 -4999.847 5000.000 1773.022 0.076 -4999.847 2225.452 3839.094 5000.000 375.296 3772.717 3002.289 5000.000 -2949.798 -1088.502 -4999.847 3357.061 684.749 0.076 0.076
-1175.021 334.249 -2981.079 -4999.847 -4999.847 1981.460 5000.000 -4999.847 186.236 5000.000 103.227 -1304.265 0.076 -4077.897 -2680.934 -4999.847 5000.000 1771.191 0.076 -4999.847 2223.316 3832.990 5000.000 362.325 3766.460 2997.253 5000.000 -2971.618 -1095.979 -4999.847 3345.006 859.312 0.076 0.076
-1203.250 308.156 -3004.272 -4999.847 -4999.847 1956.435 5000.000 -4999.847 163.348 5000.000 76.219 -1328.222 0.076 -4099.870 -2706.416 -4999.847 5000.000 1754.253 0.076 -4999.847 2199.207 3805.066 5000.000 340.047 3742.656 2973.754 5000.000 -3003.204 -1118.715 -4999.847 3321.660 1562.753 0.076 0.076
-1244.449 265.431 -3044.098 -4999.847 -4999.847 1910.811 5000.000 -4999.847 124.285 5000.000 35.172 -1362.859 0.076 -4133.898 -2745.174 -4999.847 5000.000 1726.940 0.076 -4999.847 2160.143 3764.172 5000.000 308.309 3704.509 2935.302 5000.000 -3043.335 -1153.811 -4999.847 3289.921 2650.111 0.076 0.076
-1274.510 232.319 -3069.734 -4999.847 -4999.847 1879.072 5000.000 -4999.847 102.159 5000.000 7.401 -1384.375 0.076 -4152.514 -2770.046 -4999.847 5000.000 1709.239 0.076 -4999.847 2133.288 3736.248 5000.000 298.695 3682.078 2913.176 5000.000 -3062.257 -1172.274 -4999.847 3276.493 3283.665 0.076 0.076
-1285.191 219.959 -3079.194 -4999.847 -4999.847 1863.661 5000.000 -4999.847 96.056 5000.000 -4.959 -1389.715 0.076 -4153.124 -2778.134 -4999.847 5000.000 1705.730 0.076 -4999.847 2123.674 3725.566 5000.000 302.052 3676.890 2907.683 5000.000 -3068.208 -1173.800 -4999.847 3278.782 3466.926 0.076 0.076
-1286.870 216.144 -3080.262 -4999.847 -4999.847 1860.151 5000.000 -4999.847 96.208 5000.000 -7.401 -1388.800 0.076 -4151.751 -2779.507 -4999.847 5000.000 1702.373 0.076 -4999.847 2122.454 3723.430 5000.000 305.562 3679.026 2908.446 5000.000 -3070.344 -1171.969 -4999.847 3281.071 3475.318 0.076 0.076
-1285.191 218.891 -3078.431 -4999.847 -4999.847 1863.203 5000.000 -4999.847 96.666 5000.000 -6.790 -1388.342 0.076 -4151.293 -2776.303 -4999.847 5000.000 1702.373 0.076 -4999.847 2125.658 3725.261 5000.000 304.036 3678.874 2909.667 5000.000 -3078.431 -1171.054 -4999.847 3279.087 3453.193 0.076 0.076
-1277.256 226.673 -3073.701 -4999.847 -4999.847 1871.290 5000.000 -4999.847 99.107 5000.000 -1.755 -1386.664 0.076 -4152.056 -2773.556 -4999.847 5000.000 1697.642 0.076 -4999.847 2129.778 3728.466 5000.000 296.559 3679.484 2911.040 5000.000 -3090.028 -1171.969 -4999.847 3272.526 3426.490 0.076 0.076
-1266.575 236.133 -3068.971 -4999.847 -4999.847 1882.887 5000.000 -4999.847 100.786 5000.000 2.823 -1386.816 0.076 -4154.192 -2770.199 -4999.847 5000.000 1697.795 0.076 -4999.847 2135.576 3733.348 5000.000 285.267 3681.010 2913.939 5000.000 -3103.914 -1173.495 -4999.847 3261.387 3397.040 0.076 0.076
-1257.725 246.509 -3061.646 -4999.847 -4999.847 1894.331 5000.000 -4999.847 103.227 5000.000 7.095 -1388.037 0.076 -4155.871 -2763.638 -4999.847 5000.000 1696.574 0.076 -4999.847 2141.070 3737.163 5000.000 274.434 3681.163 2915.312 5000.000 -3118.715 -1174.716 -4999.847 3250.095 3363.165 0.076 0.076
-1254.673 251.545 -3059.357 -4999.847 -4999.847 1899.367 5000.000 -4999.847 104.448 5000.000 9.537 -1387.121 0.076 -4156.786 -2761.501 -4999.847 5000.000 1695.659 0.076 -4999.847 2141.985 3738.842 5000.000 268.177 3680.247 2917.144 5000.000 -3127.565 -1177.615 -4999.847 3244.907 3342.107 0.076 0.076
-1254.521 250.019 -3059.663 -4999.847 -4999.847 1900.282 5000.000 -4999.847 104.295 5000.000 8.469 -1388.189 0.076 -4156.329 -2762.417 -4999.847 5000.000 1694.285 0.076 -4999.847 2140.459 3738.689 5000.000 269.551 3679.942 2916.533 5000.000 -3131.380 -1176.089 -4999.847 3247.654 3333.409 0.076 0.076
-1260.014 244.373 -3061.952 -4999.847 -4999.847 1891.585 5000.000 -4999.847 105.821 5000.000 1.755 -1388.037 0.076 -4154.040 -2765.469 -4999.847 5000.000 1695.964 0.076 -4999.847 2136.339 3737.163 5000.000 276.875 3680.400 2915.770 5000.000 -3127.871 -1174.868 -4999.847 3251.621 3329.747 0.076 0.076
-1265.965 237.659 -3064.088 -4999.847 -4999.847 1882.582 5000.000 -4999.847 105.669 5000.000 -2.365 -1385.748 0.076 -4150.225 -2767.605 -4999.847 5000.000 1693.522 0.076 -4999.847 2133.440 3733.501 5000.000 290.608 3679.789 2916.075 5000.000 -3123.903 -1170.748 -4999.847 3261.387 3328.832 0.076 0.076
-1272.374 228.656 -3067.750 -4999.847 -4999.847 1874.189 5000.000 -4999.847 104.143 5000.000 -6.638 -1384.375 0.076 -4145.037 -2768.215 -4999.847 5000.000 1691.844 0.076 -4999.847 2129.320 3728.923 5000.000 303.120 3682.536 2915.770 5000.000 -3116.426 -1165.255 -4999.847 3272.068 3332.494 0.076 0.076
-1275.120 224.842 -3068.055 -4999.847 -4999.847 1868.849 5000.000 -4999.847 104.753 5000.000 -10.605 -1382.696 0.076 -4141.222 -2769.589 -4999.847 5000.000 1690.776 0.076 -4999.847 2126.879 3727.245 5000.000 308.614 3683.757 2915.007 5000.000 -3114.137 -1164.187 -4999.847 3277.104 3328.527 0.076 0.076
-1273.747 224.994 -3067.140 -4999.847 -4999.847 1868.086 5000.000 -4999.847 104.448 5000.000 -10.452 -1381.933 0.076 -4141.680 -2768.673 -4999.847 5000.000 1693.828 0.076 -4999.847 2129.167 3728.008 5000.000 308.919 3684.520 2915.770 5000.000 -3118.105 -1164.645 -4999.847 3275.883 3319.371 0.076 0.076
-1267.796 230.182 -3065.309 -4999.847 -4999.847 1875.105 5000.000 -4999.847 104.906 5000.000 -7.248 -1382.849 0.076 -4143.206 -2765.164 -4999.847 5000.000 1698.100 0.076 -4999.847 2132.830 3730.907 5000.000 302.052 3682.994 2917.449 5000.000 -3126.497 -1165.408 -4999.847 3271.153 3305.791 0.076 0.076
-1261.234 239.338 -3060.120 -4999.847 -4999.847 1885.939 5000.000 -4999.847 106.126 5000.000 -3.128 -1382.849 0.076 -4145.037 -2762.875 -4999.847 5000.000 1693.675 0.076 -4999.847 2139.086 3735.637 5000.000 291.524 3684.214 2918.212 5000.000 -3137.941 -1167.086 -4999.847 3259.251 3289.006 0.076 0.076
-1250.706 248.646 -3054.780 -4999.847 -4999.847 1899.062 5000.000 -4999.847 107.500 5000.000 1.755 -1384.222 0.076 -4148.241 -2759.823 -4999.847 5000.000 1688.029 0.076 -4999.847 2145.495 3739.605 5000.000 278.706 3686.045 2920.043 5000.000 -3151.217 -1169.528 -4999.847 3246.891 3271.153 0.076 0.076
-1245.365 254.902 -3051.270 -4999.847 -4999.847 1904.097 5000.000 -4999.847 108.263 5000.000 4.807 -1384.833 0.076 -4150.377 -2757.839 -4999.847 5000.000 1691.539 0.076 -4999.847 2150.378 3744.793 5000.000 270.314 3684.520 2922.332 5000.000 -3160.983 -1171.969 -4999.847 3239.567 3257.267 0.076 0.076
-1245.212 255.360 -3049.744 -4999.847 -4999.847 1905.776 5000.000 -4999.847 109.483 5000.000 3.891 -1385.290 0.076 -4150.835 -2756.466 -4999.847 5000.000 1695.354 0.076 -4999.847 2151.598 3745.403 5000.000 268.788 3685.893 2922.332 5000.000 -3164.340 -1171.054 -4999.847 3237.736 3250.248 0.076 0.076
-1248.875 249.561 -3051.881 -4999.847 -4999.847 1898.604 5000.000 -4999.847 108.721 5000.000 1.907 -1383.764 0.076 -4148.241 -2756.161 -4999.847 5000.000 1705.730 0.076 -4999.847 2148.699 3743.419 5000.000 275.502 3685.740 2922.332 5000.000 -3162.814 -1169.375 -4999.847 3244.144 3251.316 0.076 0.076
-1255.741 241.474 -3056.000 -4999.847 -4999.847 1890.364 5000.000 -4999.847 108.110 5000.000 -1.144 -1383.459 0.076 -4145.800 -2758.907 -4999.847 5000.000 1710.765 0.076 -4999.847 2144.274 3741.741 5000.000 287.404 3686.656 2920.958 5000.000 -3157.168 -1166.323 -4999.847 3251.469 3256.657 0.076 0.076
-1262.150 233.539 -3060.426 -4999.847 -4999.847 1880.598 5000.000 -4999.847 106.737 5000.000 -5.875 -1381.323 0.076 -4140.612 -2761.501 -4999.847 5000.000 1713.970 0.076 -4999.847 2139.544 3738.537 5000.000 299.153 3685.740 2919.585 5000.000 -3150.759 -1163.882 -4999.847 3262.608 3262.302 0.076 0.076
-1266.880 228.199 -3061.188 -4999.847 -4999.847 1874.495 5000.000 -4999.847 106.279 5000.000 -6.638 -1380.560 0.076 -4140.154 -2764.401 -4999.847 5000.000 1713.207 0.076 -4999.847 2135.271 3735.790 5000.000 305.715 3687.572 2918.822 5000.000 -3147.860 -1161.288 -4999.847 3271.153 3264.286 0.076 0.076
-1267.796 226.215 -3060.731 -4999.847 -4999.847 1873.274 5000.000 -4999.847 106.126 5000.000 -7.706 -1380.407 0.076 -4139.391 -2764.248 -4999.847 5000.000 1712.596 0.076 -4999.847 2134.508 3736.248 5000.000 307.240 3688.487 2917.601 5000.000 -3148.318 -1162.051 -4999.847 3269.780 3262.302 0.076 0.076
-1264.286 230.335 -3058.900 -4999.847 -4999.847 1878.157 5000.000 -4999.847 105.669 5000.000 -4.654 -1380.713 0.076 -4139.391 -2761.807 -4999.847 5000.000 1709.239 0.076 -4999.847 2137.102 3740.215 5000.000 301.289 3688.182 2918.212 5000.000 -3155.489 -1163.271 -4999.847 3264.744 3252.537 0.076 0.076
-1256.199 238.727 -3055.390 -4999.847 -4999.847 1886.854 5000.000 -4999.847 107.195 5000.000 -0.992 -1381.170 0.076 -4141.985 -2758.145 -4999.847 5000.000 1703.746 0.076 -4999.847 2142.290 3743.877 5000.000 291.524 3686.656 2920.043 5000.000 -3167.697 -1164.340 -4999.847 3257.115 3238.651 0.076 0.076
-1247.959 248.951 -3049.287 -4999.847 -4999.847 1897.993 5000.000 -4999.847 108.110 5000.000 2.518 -1379.034 0.076 -4144.274 -2754.787 -4999.847 5000.000 1699.474 0.076 -4999.847 2149.004 3749.828 5000.000 279.011 3687.114 2921.416 5000.000 -3182.498 -1167.239 -4999.847 3243.534 3222.934 0.076 0.076
-1241.245 255.817 -3045.777 -4999.847 -4999.847 1908.370 5000.000 -4999.847 109.789 5000.000 4.501 -1380.865 0.076 -4147.936 -2752.804 -4999.847 5000.000 1693.675 0.076 -4999.847 2153.124 3753.643 5000.000 271.077 3687.114 2923.857 5000.000 -3191.196 -1169.070 -4999.847 3235.904 3210.117 0.076 0.076
-1238.499 256.275 -3045.472 -4999.847 -4999.847 1911.574 5000.000 -4999.847 108.415 5000.000 3.433 -1382.391 0.076 -4147.936 -2750.667 -4999.847 5000.000 1691.844 0.076 -4999.847 2157.549 3755.016 5000.000 269.093 3687.877 2925.536 5000.000 -3195.773 -1168.917 -4999.847 3232.700 3203.555 0.076 0.076
-1242.618 252.918 -3047.456 -4999.847 -4999.847 1907.759 5000.000 -4999.847 108.568 5000.000 -0.381 -1382.238 0.076 -4145.953 -2752.193 -4999.847 5000.000 1692.454 0.076 -4999.847 2154.955 3753.490 5000.000 273.671 3688.487 2925.078 5000.000 -3193.179 -1167.391 -4999.847 3238.956 3205.844 0.076 0.076
-1249.027 245.594 -3050.355 -4999.847 -4999.847 1897.688 5000.000 -4999.847 108.721 5000.000 -4.654 -1380.865 0.076 -4141.985 -2754.635 -4999.847 5000.000 1694.285 0.076 -4999.847 2151.293 3749.523 5000.000 282.826 3688.792 2923.247 5000.000 -3187.533 -1165.408 -4999.847 3247.043 3214.237 0.076 0.076
-1257.877 237.201 -3054.780 -4999.847 -4999.847 1885.939 5000.000 -4999.847 109.026 5000.000 -9.537 -1379.950 0.076 -4138.476 -2757.687 -4999.847 5000.000 1694.896 0.076 -4999.847 2147.936 3746.013 5000.000 295.949 3689.860 2922.637 5000.000 -3179.904 -1162.356 -4999.847 3259.708 3223.087 0.076 0.076
-1262.760 228.199 -3056.611 -4999.847 -4999.847 1879.377 5000.000 -4999.847 109.178 5000.000 -16.098 -1379.644 0.076 -4135.119 -2760.281 -4999.847 5000.000 1695.201 0.076 -4999.847 2143.816 3742.504 5000.000 304.952 3690.166 2920.653 5000.000 -3172.732 -1159.152 -4999.847 3267.948 3230.869 0.076 0.076
-1263.371 227.741 -3058.289 -4999.847 -4999.847 1878.004 5000.000 -4999.847 108.263 5000.000 -21.439 -1379.034 0.076 -4132.830 -2760.739 -4999.847 5000.000 1693.065 0.076 -4999.847 2143.511 3742.351 5000.000 308.003 3690.166 2921.263 5000.000 -3172.274 -1159.609 -4999.847 3272.374 3231.174 0.076 0.076
-1261.082 230.488 -3056.153 -4999.847 -4999.847 1880.446 5000.000 -4999.847 108.263 5000.000 -27.695 -1378.271 0.076 -4133.593 -2758.602 -4999.847 5000.000 1688.640 0.076 -4999.847 2147.326 3745.708 5000.000 305.409 3688.640 2921.263 5000.000 -3177.462 -1160.677 -4999.847 3270.085 3224.002 0.076 0.076
-1256.199 237.964 -3053.101 -4999.847 -4999.847 1890.516 5000.000 -4999.847 111.772 5000.000 -26.169 -1380.102 0.076 -4136.645 -2756.161 -4999.847 5000.000 1681.773 0.076 -4999.847 2151.751 3748.913 5000.000 296.712 3689.860 2924.163 5000.000 -3186.618 -1160.525 -4999.847 3260.777 3212.558 0.076 0.076
-1246.891 246.357 -3047.913 -4999.847 -4999.847 1900.282 5000.000 -4999.847 112.383 5000.000 -4.807 -1380.865 0.076 -4140.307 -2752.804 -4999.847 5000.000 1672.007 0.076 -4999.847 2157.244 3752.880 5000.000 284.810 3689.403 2924.620 5000.000 -3199.893 -1163.882 -4999.847 3249.180 3198.367 0.076 0.076
-1241.855 251.850 -3046.540 -4999.847 -4999.847 1908.217 5000.000 -4999.847 110.704 5000.000 34.409 -1381.323 0.076 -4143.969 -2750.973 -4999.847 5000.000 1664.836 0.076 -4999.847 2161.822 3755.474 5000.000 272.908 3687.877 2925.536 5000.000 -3211.185 -1167.697 -4999.847 3238.651 3185.397 0.076 0.076
-1240.940 253.529 -3045.472 -4999.847 -4999.847 1911.269 5000.000 -4999.847 110.704 5000.000 72.709 -1383.459 0.076 -4147.479 -2750.057 -4999.847 5000.000 1660.563 0.076 -4999.847 2163.958 3756.084 5000.000 267.414 3686.656 2926.757 5000.000 -3218.814 -1169.528 -4999.847 3232.395 3176.852 0.076 0.076
-1243.076 252.308 -3046.845 -4999.847 -4999.847 1908.980 5000.000 -4999.847 110.094 5000.000 65.080 -1383.764 0.076 -4145.037 -2751.583 -4999.847 5000.000 1662.394 0.076 -4999.847 2164.263 3754.711 5000.000 269.093 3686.045 2926.757 5000.000 -3216.068 -1167.849 -4999.847 3236.515 3179.446 0.076 0.076
-1247.349 245.594 -3048.371 -4999.847 -4999.847 1900.587 5000.000 -4999.847 109.026 5000.000 53.788 -1383.001 0.076 -4142.138 -2754.177 -4999.847 5000.000 1664.073 0.076 -4999.847 2162.127 3751.354 5000.000 279.011 3686.809 2925.078 5000.000 -3210.117 -1165.713 -4999.847 3244.602 3187.686 0.076 0.076
-1257.267 235.218 -3054.017 -4999.847 -4999.847 1889.754 5000.000 -4999.847 108.110 5000.000 57.450 -1382.696 0.076 -4138.781 -2758.297 -4999.847 5000.000 1667.430 0.076 -4999.847 2156.786 3746.471 5000.000 289.845 3685.588 2923.552 5000.000 -3201.266 -1161.135 -4999.847 3256.352 3198.367 0.076 0.076
-1264.591 228.504 -3057.374 -4999.847 -4999.847 1878.767 5000.000 -4999.847 106.584 5000.000 45.701 -1381.475 0.076 -4133.593 -2762.264 -4999.847 5000.000 1671.244 0.076 -4999.847 2153.429 3742.504 5000.000 299.916 3686.809 2922.332 5000.000 -3191.653 -1159.152 -4999.847 3265.659 3208.438 0.076 0.076
-1266.880 224.689 -3058.442 -4999.847 -4999.847 1875.105 5000.000 -4999.847 106.432 5000.000 50.278 -1382.086 0.076 -4134.050 -2763.180 -4999.847 5000.000 1672.160 0.076 -4999.847 2150.683 3741.741 5000.000 305.715 3686.045 2920.348 5000.000 -3189.059 -1158.694 -4999.847 3268.711 3212.100 0.076 0.076
-1265.202 225.910 -3058.594 -4999.847 -4999.847 1876.631 5000.000 -4999.847 107.195 5000.000 54.246 -1382.849 0.076 -4133.593 -2762.264 -4999.847 5000.000 1670.329 0.076 -4999.847 2152.819 3742.809 5000.000 303.120 3684.825 2921.416 5000.000 -3193.637 -1160.220 -4999.847 3267.033 3206.149 0.076 0.076
-1260.014 231.250 -3054.017 -4999.847 -4999.847 1885.939 5000.000 -4999.847 107.652 5000.000 42.191 -1382.849 0.076 -4135.576 -2757.992 -4999.847 5000.000 1665.293 0.076 -4999.847 2158.160 3747.539 5000.000 295.033 3684.977 2924.926 5000.000 -3200.809 -1160.677 -4999.847 3260.624 3196.994 0.076 0.076
-1251.774 242.237 -3049.897 -4999.847 -4999.847 1895.705 5000.000 -4999.847 109.483 5000.000 44.175 -1383.001 0.076 -4139.086 -2754.635 -4999.847 5000.000 1657.511 0.076 -4999.847 2163.806 3752.728 5000.000 283.436 3683.451 2926.757 5000.000 -3213.321 -1162.814 -4999.847 3248.875 3184.481 0.076 0.076
-1243.381 250.477 -3045.930 -4999.847 -4999.847 1908.522 5000.000 -4999.847 109.331 5000.000 50.431 -1383.001 0.076 -4143.053 -2751.278 -4999.847 5000.000 1653.696 0.076 -4999.847 2170.825 3756.695 5000.000 271.534 3682.688 2929.198 5000.000 -3226.902 -1166.018 -4999.847 3237.278 3170.291 0.076 0.076
-1240.940 255.207 -3043.183 -4999.847 -4999.847 1914.168 5000.000 -4999.847 110.552 5000.000 58.061 -1382.391 0.076 -4145.647 -2748.379 -4999.847 5000.000 1650.034 0.076 -4999.847 2175.097 3757.610 5000.000 264.973 3683.299 2930.724 5000.000 -3235.141 -1167.544 -4999.847 3231.479 3163.577 0.076 0.076
-1240.635 251.087 -3044.709 -4999.847 -4999.847 1910.811 5000.000 -4999.847 111.162 5000.000 54.246 -1382.391 0.076 -4144.122 -2749.447 -4999.847 5000.000 1649.882 0.076 -4999.847 2175.555 3757.763 5000.000 266.804 3682.994 2931.029 5000.000 -3234.684 -1166.476 -4999.847 3234.226 3163.271 0.076 0.076
-1247.501 243.305 -3046.540 -4999.847 -4999.847 1905.013 5000.000 -4999.847 110.552 5000.000 48.905 -1382.544 0.076 -4141.680 -2751.888 -4999.847 5000.000 1650.797 0.076 -4999.847 2173.419 3756.390 5000.000 273.823 3684.062 2930.571 5000.000 -3228.427 -1163.424 -4999.847 3243.381 3170.596 0.076 0.076
-1255.131 233.539 -3050.660 -4999.847 -4999.847 1896.010 5000.000 -4999.847 109.483 5000.000 45.090 -1382.544 0.076 -4138.476 -2754.482 -4999.847 5000.000 1654.459 0.076 -4999.847 2169.451 3751.507 5000.000 287.098 3683.757 2928.588 5000.000 -3219.730 -1159.304 -4999.847 3253.300 3180.056 0.076 0.076
-1262.303 226.825 -3056.153 -4999.847 -4999.847 1883.802 5000.000 -4999.847 108.568 5000.000 30.289 -1381.170 0.076 -4134.203 -2757.534 -4999.847 5000.000 1659.190 0.076 -4999.847 2164.569 3747.539 5000.000 297.475 3684.062 2927.977 5000.000 -3211.337 -1157.168 -4999.847 3265.202 3190.433 0.076 0.076
-1267.033 222.553 -3058.442 -4999.847 -4999.847 1877.546 5000.000 -4999.847 108.415 5000.000 25.406 -1381.628 0.076 -4132.219 -2759.060 -4999.847 5000.000 1662.394 0.076 -4999.847 2162.432 3745.708 5000.000 305.257 3684.825 2927.977 5000.000 -3205.692 -1155.337 -4999.847 3271.458 3196.231 0.076 0.076
-1267.491 221.942 -3057.221 -4999.847 -4999.847 1879.072 5000.000 -4999.847 108.415 5000.000 32.578 -1381.018 0.076 -4133.440 -2759.365 -4999.847 5000.000 1665.293 0.076 -4999.847 2162.737 3745.861 5000.000 304.189 3682.994 2928.130 5000.000 -3209.201 -1156.557 -4999.847 3271.611 3194.552 0.076 0.076
-1261.692 226.520 -3055.543 -4999.847 -4999.847 1886.702 5000.000 -4999.847 108.263 5000.000 40.513 -1382.849 0.076 -4136.034 -2759.213 -4999.847 5000.000 1665.904 0.076 -4999.847 2165.026 3747.844 5000.000 296.864 3682.841 2929.808 5000.000 -3218.356 -1158.083 -4999.847 3264.286 3187.381 0.076 0.076
-1253.757 235.523 -3050.507 -4999.847 -4999.847 1895.552 5000.000 -4999.847 108.415 5000.000 50.278 -1383.001 0.076 -4139.696 -2754.330 -4999.847 5000.000 1665.141 0.076 -4999.847 2168.078 3752.728 5000.000 284.810 3680.857 2931.029 5000.000 -3233.463 -1160.677 -4999.847 3251.926 3175.326 0.076 0.076
-1247.044 243.458 -3046.845 -4999.847 -4999.847 1907.454 5000.000 -4999.847 109.483 5000.000 54.398 -1383.001 0.076 -4142.900 -2750.667 -4999.847 5000.000 1669.261 0.076 -4999.847 2170.977 3757.610 5000.000 271.992 3680.094 2933.623 5000.000 -3247.501 -1163.729 -4999.847 3238.651 3162.203 0.076 0.076
-1242.313 247.730 -3044.251 -4999.847 -4999.847 1913.405 5000.000 -4999.847 110.094 5000.000 56.840 -1383.154 0.076 -4144.579 -2749.599 -4999.847 5000.000 1673.838 0.076 -4999.847 2173.266 3761.120 5000.000 265.278 3679.637 2933.928 5000.000 -3258.183 -1164.950 -4999.847 3233.768 3154.116 0.076 0.076
-1242.313 246.967 -3044.098 -4999.847 -4999.847 1913.863 5000.000 -4999.847 109.178 5000.000 56.992 -1383.612 0.076 -4145.189 -2749.599 -4999.847 5000.000 1684.062 0.076 -4999.847 2172.503 3760.052 5000.000 264.057 3679.637 2933.166 5000.000 -3261.692 -1163.577 -4999.847 3233.310 3152.895 0.076 0.076
