Fp1 Fpz Fp2 F7 F3 Fz F4 F8 FC5 FC1 FC2 FC6 M1 T7 C3 Cz C4 T8 M2 CP5 CP1 CP2 CP6 P7 P3 Pz P4 P8 POz O1 Oz O2 HEOG VEOG
-1470.722 40.771 -3312.738 -6722.483 -11462.616 1679.669 9144.593 -9911.199 -122.772 5676.515 -26.629 -1548.015 0.000 -4295.646 -2949.407 -6966.059 10020.583 1684.101 0.000 -6898.862 1948.494 3599.033 7959.101 2534.731 3536.747 2738.345 7386.822 -647.861 -1350.635 -5218.770 3889.062 1065.940 0.000 0.000
-1479.807 31.907 -3323.993 -6737.618 -11472.914 1672.957 9133.063 -9924.256 -136.141 5667.430 -38.214 -1562.543 0.000 -4315.085 -2962.500 -6976.265 10007.986 1669.371 0.000 -6914.144 1937.754 3588.533 7943.101 2535.926 3521.593 2725.453 7370.013 -645.342 -1366.800 -5232.378 4221.627 1061.747 0.000 0.000
-1478.151 32.440 -3327.469 -6744.478 -11475.471 1674.649 9128.152 -9933.506 -143.037 5667.780 -41.359 -1572.658 0.000 -4327.222 -2969.617 -6979.392 9999.177 1656.075 0.000 -6927.697 1930.619 3581.434 7926.624 2519.099 3510.761 2716.166 7355.596 -678.352 -1380.482 -5247.495 4465.533 1062.519 0.000 0.000
-1468.497 44.816 -3320.260 -6741.719 -11466.404 1688.791 9134.166 -9930.582 -141.382 5679.623 -33.451 -1570.782 0.000 -4331.654 -2965.572 -6969.479 9999.158 1650.889 0.000 -6933.987 1931.649 3582.390 7917.557 2478.237 3505.483 2713.592 7345.315 -692.843 -1389.604 -5267.834 4518.203 1034.658 0.000 0.000
-1461.932 52.467 -3314.614 -6739.585 -11460.061 1698.096 9137.881 -9929.644 -138.458 5687.089 -31.226 -1571.039 0.000 -4335.167 -2962.721 -6962.638 10001.199 1650.944 0.000 -6936.635 1934.131 3586.565 7914.707 2480.186 3503.148 2713.647 7341.031 -686.113 -1393.337 -5283.282 4494.185 1011.707 0.000 0.000
-1460.828 54.177 -3312.830 -6739.218 -11460.244 1697.912 9137.974 -9930.232 -139.562 5687.806 -30.693 -1570.230 0.000 -4335.167 -2962.022 -6962.712 10005.558 1655.394 0.000 -6932.883 1936.964 3590.445 7917.870 2492.452 3506.348 2716.148 7344.304 -703.657 -1392.270 -5285.250 4477.781 996.922 0.000 0.000
-1463.568 49.396 -3315.441 -6739.825 -11461.991 1693.498 9137.551 -9929.166 -137.943 5684.993 -33.139 -1569.145 0.000 -4331.103 -2962.464 -6964.845 10005.576 1663.688 0.000 -6928.488 1937.846 3592.303 7924.803 2514.152 3511.276 2718.410 7350.906 -735.526 -1384.197 -5275.116 4466.802 980.776 0.000 0.000
-1470.648 42.407 -3318.384 -6736.864 -11464.198 1685.444 9135.049 -9924.826 -136.895 5678.520 -37.074 -1564.603 0.000 -4322.900 -2961.599 -6969.884 10005.760 1672.092 0.000 -6922.254 1938.472 3590.593 7932.692 2523.182 3516.407 2723.302 7360.542 -789.759 -1375.977 -5255.954 4463.161 984.380 0.000 0.000
-1477.765 34.665 -3320.002 -6736.882 -11469.108 1674.777 9131.371 -9921.553 -134.339 5671.017 -44.835 -1562.635 0.000 -4315.563 -2964.137 -6975.695 10002.983 1677.462 0.000 -6917.270 1934.021 3586.749 7937.124 2513.177 3519.184 2722.731 7366.722 -807.762 -1370.423 -5233.206 4485.817 993.888 0.000 0.000
-1484.000 28.413 -3325.574 -6738.574 -11473.980 1666.042 9127.656 -9923.594 -135.976 5663.624 -52.908 -1565.118 0.000 -4312.106 -2967.061 -6981.230 9999.912 1679.467 0.000 -6916.829 1930.104 3581.692 7938.099 2504.460 3519.350 2719.624 7369.112 -764.895 -1367.591 -5212.241 4497.569 996.995 0.000 0.000
-1489.590 20.744 -3331.974 -6744.661 -11480.271 1657.932 9121.845 -9929.221 -142.044 5657.316 -60.264 -1571.003 0.000 -4317.071 -2971.548 -6987.410 9996.510 1680.956 0.000 -6920.139 1926.573 3581.140 7935.580 2537.508 3514.586 2714.640 7364.404 -707.978 -1371.673 -5208.839 4512.005 1012.204 0.000 0.000
-1491.558 18.261 -3334.420 -6749.204 -11482.588 1659.238 9117.137 -9935.345 -146.899 5656.783 -61.220 -1575.545 0.000 -4326.119 -2975.833 -6989.708 9995.406 1680.552 0.000 -6924.277 1924.716 3580.165 7930.614 2565.350 3510.817 2711.992 7358.741 -668.495 -1377.319 -5210.751 4524.105 1015.698 0.000 0.000
-1484.956 24.790 -3331.845 -6749.314 -11479.241 1666.557 9117.449 -9936.301 -148.131 5662.557 -59.620 -1578.506 0.000 -4332.850 -2976.091 -6984.909 9992.795 1674.226 0.000 -6930.934 1924.311 3580.037 7921.879 2591.648 3505.226 2708.719 7350.594 -671.106 -1385.687 -5222.944 4534.643 1017.316 0.000 0.000
-1475.025 38.987 -3322.853 -6747.457 -11469.126 1681.858 9122.139 -9932.733 -145.299 5673.333 -52.945 -1577.972 0.000 -4336.638 -2971.493 -6973.709 9992.868 1672.203 0.000 -6937.296 1926.224 3581.581 7912.923 2585.303 3502.560 2708.240 7343.458 -704.024 -1392.509 -5240.654 4533.172 1005.326 0.000 0.000
-1465.058 49.009 -3316.122 -6742.197 -11460.979 1693.940 9128.226 -9931.061 -140.831 5683.062 -45.791 -1575.710 0.000 -4338.183 -2967.024 -6967.291 9995.646 1672.276 0.000 -6940.552 1929.865 3584.763 7909.650 2563.198 3500.279 2708.590 7338.401 -717.468 -1397.897 -5257.517 4523.443 983.571 0.000 0.000
-1464.065 51.051 -3313.455 -6741.021 -11458.772 1697.140 9129.826 -9930.251 -139.672 5684.644 -45.387 -1574.975 0.000 -4338.256 -2966.473 -6964.918 9996.768 1677.849 0.000 -6938.750 1931.520 3587.135 7911.673 2532.432 3501.162 2708.847 7336.893 -687.529 -1397.493 -5263.623 4507.573 970.661 0.000 0.000
-1468.570 45.295 -3316.526 -6744.293 -11464.805 1689.802 9125.614 -9931.667 -143.074 5681.260 -52.044 -1576.189 0.000 -4337.778 -2968.771 -6969.111 9998.956 1686.565 0.000 -6935.108 1933.175 3589.121 7914.431 2539.880 3502.449 2710.337 7340.865 -664.909 -1395.360 -5258.437 4507.941 961.374 0.000 0.000
-1478.096 35.401 -3321.970 -6746.041 -11470.689 1678.290 9120.392 -9932.752 -144.913 5671.255 -57.524 -1577.163 0.000 -4334.450 -2969.930 -6977.019 9996.491 1697.802 0.000 -6929.886 1930.031 3587.705 7920.666 2564.872 3507.488 2710.760 7346.897 -683.170 -1387.893 -5241.904 4517.503 968.326 0.000 0.000
-1486.464 25.323 -3329.031 -6745.728 -11477.383 1666.962 9117.229 -9932.918 -144.913 5663.292 -65.799 -1575.508 0.000 -4326.781 -2975.300 -6984.099 9993.311 1706.224 0.000 -6927.274 1924.495 3581.673 7925.244 2565.074 3509.529 2710.135 7354.069 -681.423 -1381.530 -5222.448 4534.018 980.555 0.000 0.000
-1496.026 13.811 -3334.475 -6750.693 -11483.525 1655.781 9109.304 -9933.782 -148.371 5652.387 -73.652 -1578.138 0.000 -4324.924 -2979.842 -6990.738 9984.979 1711.337 0.000 -6928.801 1916.422 3573.012 7925.061 2570.701 3507.102 2705.647 7354.713 -622.575 -1381.365 -5207.166 4552.059 1001.795 0.000 0.000
-1502.040 8.459 -3340.985 -6756.928 -11490.919 1646.659 9103.639 -9938.250 -154.255 5646.171 -81.026 -1584.078 0.000 -4328.565 -2987.014 -6997.727 9980.217 1713.948 0.000 -6933.490 1911.273 3568.396 7921.566 2583.335 3502.045 2699.652 7350.208 -546.827 -1387.029 -5202.218 4578.135 1017.887 0.000 0.000
-1507.005 7.099 -3344.130 -6760.054 -11493.530 1646.530 9100.973 -9943.014 -158.246 5641.887 -84.925 -1588.124 0.000 -4336.785 -2989.828 -6997.597 9978.543 1718.601 0.000 -6935.660 1909.489 3567.973 7917.576 2588.337 3496.840 2696.783 7344.249 -504.916 -1390.155 -5204.756 4592.314 1031.605 0.000 0.000
-1502.058 10.372 -3341.721 -6762.739 -11490.753 1652.985 9100.825 -9946.600 -160.747 5648.121 -84.337 -1591.765 0.000 -4344.932 -2991.814 -6995.575 9978.709 1722.683 0.000 -6940.699 1913.222 3569.775 7912.298 2597.017 3494.523 2694.521 7338.714 -500.300 -1398.927 -5216.729 4601.583 1034.640 0.000 0.000
-1492.183 21.958 -3335.909 -6760.955 -11484.390 1665.123 9105.000 -9946.545 -159.827 5658.088 -77.164 -1593.953 0.000 -4352.012 -2989.920 -6990.002 9978.782 1723.750 0.000 -6948.993 1913.369 3570.731 7901.650 2602.461 3490.698 2692.646 7329.776 -506.571 -1407.295 -5239.311 4597.537 1033.812 0.000 0.000
-1483.227 33.212 -3329.031 -6757.902 -11476.703 1676.653 9110.259 -9944.503 -156.609 5668.645 -69.496 -1591.691 0.000 -4355.782 -2985.580 -6980.679 9978.451 1729.800 0.000 -6954.142 1913.829 3572.019 7894.625 2571.308 3487.112 2691.763 7321.887 -486.710 -1414.081 -5263.310 4578.687 1021.528 0.000 0.000
-1478.961 36.725 -3326.420 -6756.781 -11471.701 1683.917 9112.447 -9943.031 -154.255 5673.279 -68.466 -1591.121 0.000 -4356.297 -2982.067 -6976.118 9979.205 1741.220 0.000 -6953.553 1915.502 3573.214 7892.859 2538.372 3486.045 2692.498 7319.882 -455.318 -1415.147 -5279.953 4555.939 1008.508 0.000 0.000
-1484.275 33.249 -3329.123 -6759.189 -11476.280 1678.363 9108.917 -9945.313 -155.727 5667.578 -73.394 -1592.243 0.000 -4357.787 -2985.672 -6979.759 9979.555 1753.689 0.000 -6952.561 1915.613 3572.331 7897.494 2539.567 3486.376 2692.075 7322.530 -413.187 -1412.849 -5281.902 4547.553 1004.830 0.000 0.000
-1492.661 23.171 -3335.450 -6761.176 -11483.286 1666.116 9103.639 -9947.391 -159.202 5658.953 -80.732 -1592.997 0.000 -4354.715 -2989.865 -6988.053 9979.739 1765.753 0.000 -6949.011 1913.590 3569.793 7900.712 2568.678 3489.024 2691.579 7327.146 -402.079 -1408.693 -5273.646 4548.436 1012.903 0.000 0.000
-1501.452 12.744 -3340.562 -6762.500 -11490.385 1653.923 9098.766 -9945.423 -159.772 5649.188 -88.585 -1593.843 0.000 -4349.070 -2992.715 -6996.807 9977.660 1781.163 0.000 -6943.035 1911.218 3566.777 7908.197 2587.767 3494.302 2692.167 7336.286 -428.174 -1401.796 -5256.524 4554.173 1026.824 0.000 0.000
-1510.040 3.788 -3346.024 -6763.235 -11496.509 1643.367 9092.513 -9946.600 -163.432 5641.685 -95.775 -1593.751 0.000 -4343.994 -2995.823 -7005.137 9972.438 1792.216 0.000 -6942.740 1905.682 3562.474 7909.815 2580.080 3494.670 2690.770 7341.031 -416.055 -1397.511 -5237.730 4577.896 1046.097 0.000 0.000
-1515.410 -2.078 -3348.893 -6766.362 -11500.757 1637.151 9090.509 -9947.519 -164.296 5635.671 -100.924 -1596.583 0.000 -4344.417 -2999.538 -7008.301 9967.454 1801.944 0.000 -6944.414 1899.632 3556.920 7908.712 2559.300 3491.213 2686.117 7338.861 -371.919 -1398.412 -5230.594 4598.622 1068.753 0.000 0.000
-1518.444 -3.733 -3352.240 -6770.555 -11504.343 1633.657 9085.910 -9952.374 -169.133 5632.637 -104.198 -1600.390 0.000 -4350.063 -3003.455 -7013.229 9964.769 1812.096 0.000 -6948.478 1897.021 3555.229 7904.869 2566.085 3486.045 2682.163 7332.682 -312.409 -1404.996 -5234.051 4609.619 1079.677 0.000 0.000
-1516.752 -2.354 -3354.262 -6773.552 -11504.067 1635.680 9084.550 -9957.119 -172.884 5633.924 -105.743 -1607.764 0.000 -4359.699 -3006.894 -7012.641 9963.758 1824.693 0.000 -6953.719 1898.859 3556.737 7898.101 2587.915 3481.025 2680.011 7323.854 -284.714 -1411.488 -5249.168 4617.251 1086.610 0.000 0.000
-1510.518 5.517 -3349.757 -6775.888 -11499.065 1645.133 9086.959 -9958.020 -173.454 5641.133 -102.653 -1609.199 0.000 -4367.993 -3006.931 -7006.352 9964.089 1832.839 0.000 -6959.972 1900.349 3557.380 7889.457 2613.385 3476.685 2678.356 7315.983 -314.212 -1419.892 -5267.577 4622.088 1092.550 0.000 0.000
-1500.183 18.022 -3341.114 -6770.738 -11490.164 1659.918 9093.267 -9954.765 -169.501 5654.134 -93.568 -1606.275 0.000 -4371.045 -3001.579 -6997.616 9966.001 1840.232 0.000 -6963.374 1904.377 3561.095 7884.492 2613.219 3475.820 2679.350 7311.018 -370.411 -1424.857 -5291.447 4609.436 1076.679 0.000 0.000
-1490.969 27.751 -3334.199 -6764.449 -11481.355 1671.872 9101.046 -9950.737 -163.837 5663.146 -86.562 -1602.983 0.000 -4370.071 -2995.363 -6988.881 9967.141 1849.777 0.000 -6964.587 1906.197 3564.754 7883.260 2590.084 3476.446 2681.262 7309.455 -420.285 -1425.501 -5308.495 4592.902 1063.586 0.000 0.000
-1490.399 27.879 -3332.250 -6763.419 -11481.190 1671.302 9100.531 -9948.126 -162.641 5664.396 -85.514 -1600.335 0.000 -4367.919 -2993.782 -6989.193 9969.845 1856.894 0.000 -6963.006 1907.319 3566.336 7885.412 2570.462 3476.409 2681.428 7312.195 -422.253 -1423.018 -5312.779 4583.744 1061.673 0.000 0.000
-1497.001 19.788 -3338.410 -6766.214 -11486.468 1662.493 9096.798 -9949.688 -163.414 5655.771 -91.435 -1602.523 0.000 -4364.720 -2997.313 -6995.520 9970.011 1864.158 0.000 -6956.938 1908.275 3567.311 7891.315 2589.000 3478.873 2682.936 7318.006 -416.166 -1418.899 -5307.611 4583.211 1064.468 0.000 0.000
-1510.040 6.510 -3346.502 -6771.051 -11496.933 1647.119 9089.497 -9952.889 -168.232 5643.634 -101.605 -1605.006 0.000 -4362.384 -3003.381 -7006.075 9968.833 1867.321 0.000 -6951.678 1904.450 3564.240 7896.997 2659.010 3483.048 2681.722 7323.008 -416.809 -1412.812 -5291.594 4588.397 1073.369 0.000 0.000
-1519.584 -4.671 -3353.196 -6772.577 -11504.545 1633.639 9083.667 -9954.121 -171.229 5632.526 -110.579 -1605.741 0.000 -4359.772 -3007.721 -7016.337 9963.886 1863.146 0.000 -6951.328 1898.289 3559.495 7900.344 2713.095 3484.776 2681.281 7329.960 -448.845 -1405.640 -5268.533 4612.212 1098.214 0.000 0.000
-1525.910 -11.126 -3356.911 -6774.472 -11510.614 1625.364 9079.419 -9955.923 -173.050 5627.175 -115.508 -1606.532 0.000 -4357.474 -3010.406 -7022.369 9956.898 1852.112 0.000 -6953.351 1893.214 3551.955 7897.678 2775.364 3481.852 2677.253 7328.801 -447.263 -1408.693 -5259.559 4634.629 1107.519 0.000 0.000
-1530.122 -15.319 -3362.133 -6780.301 -11514.494 1620.931 9073.369 -9960.797 -176.047 5622.394 -120.694 -1611.442 0.000 -4363.542 -3015.721 -7026.396 9953.478 1834.053 0.000 -6958.647 1889.407 3549.178 7893.430 2857.052 3476.795 2671.681 7321.464 -409.122 -1415.000 -5264.322 4647.466 1113.754 0.000 0.000
-1528.669 -13.829 -3363.035 -6782.600 -11512.913 1623.727 9072.247 -9965.780 -181.804 5622.577 -122.496 -1616.812 0.000 -4371.303 -3018.296 -7026.764 9952.466 1814.155 0.000 -6962.565 1889.021 3549.767 7887.986 2920.167 3472.216 2667.819 7315.229 -391.597 -1421.529 -5273.461 4655.686 1110.682 0.000 0.000
-1521.938 -7.172 -3360.055 -6784.090 -11508.003 1634.117 9074.086 -9965.523 -181.546 5629.142 -117.236 -1619.387 0.000 -4378.714 -3017.597 -7022.498 9951.730 1792.308 0.000 -6967.328 1891.835 3552.911 7881.917 2971.548 3468.207 2666.348 7307.340 -411.936 -1428.848 -5289.130 4659.511 1100.053 0.000 0.000
-1508.771 6.271 -3349.444 -6776.550 -11497.042 1650.539 9081.810 -9961.109 -177.666 5644.148 -106.037 -1615.580 0.000 -4380.866 -3011.399 -7011.169 9956.917 1775.922 0.000 -6970.086 1897.333 3558.428 7877.154 2969.930 3466.993 2670.155 7302.541 -475.768 -1430.816 -5311.915 4649.930 1076.440 0.000 0.000
-1497.865 19.181 -3338.300 -6769.506 -11486.945 1663.725 9091.078 -9955.427 -170.622 5656.102 -95.187 -1610.357 0.000 -4377.556 -3003.823 -7000.742 9961.274 1768.916 0.000 -6970.288 1901.471 3562.419 7876.842 2934.309 3468.961 2674.108 7301.768 -536.179 -1431.000 -5330.434 4640.165 1053.931 0.000 0.000
-1495.383 21.829 -3336.866 -6767.355 -11485.770 1664.994 9091.060 -9952.043 -167.827 5658.382 -93.017 -1607.838 0.000 -4375.717 -3001.745 -6999.565 9963.997 1769.431 0.000 -6967.383 1904.303 3566.594 7879.950 2898.411 3469.586 2675.065 7303.074 -513.706 -1431.441 -5338.691 4629.922 1038.042 0.000 0.000
-1500.440 17.507 -3339.275 -6768.679 -11487.885 1659.422 9088.742 -9951.768 -168.581 5653.307 -97.320 -1608.150 0.000 -4372.480 -3002.774 -7002.508 9966.369 1784.842 0.000 -6960.045 1908.606 3570.437 7889.513 2889.566 3476.152 2678.136 7311.588 -541.346 -1423.147 -5330.378 4632.864 1028.185 0.000 0.000
-1509.709 9.471 -3342.180 -6769.157 -11492.647 1648.112 9085.028 -9950.462 -167.901 5647.845 -104.216 -1606.550 0.000 -4366.117 -3004.282 -7009.367 9969.054 1804.647 0.000 -6953.701 1907.319 3569.701 7896.538 2911.836 3482.331 2681.869 7320.728 -606.760 -1413.639 -5312.430 4644.799 1030.355 0.000 0.000
-1517.469 -1.784 -3346.171 -6769.138 -11498.459 1637.813 9082.527 -9949.561 -167.790 5638.025 -110.009 -1605.778 0.000 -4358.541 -3006.269 -7016.098 9961.386 1833.777 0.000 -6952.027 1900.202 3561.463 7899.204 2916.691 3482.937 2679.258 7326.227 -635.356 -1408.858 -5292.054 4668.743 1047.163 0.000 0.000
-1524.586 -9.967 -3354.079 -6771.731 -11504.453 1626.412 9076.183 -9953.312 -171.321 5629.455 -116.280 -1607.764 0.000 -4357.492 -3009.928 -7024.888 9956.696 1866.714 0.000 -6953.517 1891.908 3554.401 7898.229 2928.700 3481.393 2674.550 7326.484 -598.466 -1408.950 -5279.125 4684.926 1050.014 0.000 0.000
-1530.434 -15.871 -3359.982 -6778.076 -11511.276 1620.269 9069.838 -9958.517 -177.537 5623.313 -123.047 -1614.182 0.000 -4363.616 -3016.567 -7032.999 9953.349 1903.144 0.000 -6954.491 1889.370 3550.539 7896.023 2965.057 3477.126 2669.677 7321.887 -568.564 -1414.724 -5280.063 4704.898 1055.568 0.000 0.000
-1531.299 -17.305 -3361.435 -6783.446 -11511.901 1620.453 9065.719 -9963.354 -181.564 5622.779 -125.365 -1618.375 0.000 -4371.487 -3019.289 -7034.138 9950.223 1940.292 0.000 -6960.008 1887.274 3550.024 7889.825 3002.039 3472.878 2667.010 7315.947 -570.770 -1420.517 -5288.229 4717.550 1056.855 0.000 0.000
-1521.276 -5.774 -3354.410 -6778.848 -11505.023 1633.418 9071.824 -9960.761 -178.512 5632.949 -116.685 -1616.279 0.000 -4373.841 -3014.434 -7025.808 9953.312 1974.148 0.000 -6962.528 1891.467 3553.684 7885.412 3012.392 3471.664 2669.345 7312.655 -697.422 -1423.404 -5301.929 4726.285 1048.561 0.000 0.000
-1506.159 10.023 -3342.033 -6771.621 -11491.746 1650.907 9082.655 -9954.600 -171.836 5648.047 -104.363 -1613.631 0.000 -4375.900 -3007.390 -7013.964 9956.917 1999.361 0.000 -6966.243 1896.781 3556.221 7879.086 2980.946 3470.506 2671.368 7305.814 -780.637 -1427.873 -5324.273 4715.362 1028.424 0.000 0.000
-1496.983 21.240 -3333.684 -6765.920 -11484.004 1662.235 9089.754 -9951.142 -168.305 5659.063 -95.757 -1607.783 0.000 -4377.703 -3000.476 -7004.585 9960.337 2019.700 0.000 -6966.997 1901.544 3561.058 7876.290 2939.770 3469.880 2671.938 7301.603 -803.367 -1430.080 -5346.911 4701.165 998.301 0.000 0.000
-1497.130 22.473 -3334.420 -6767.061 -11482.717 1665.049 9089.166 -9952.062 -167.662 5658.566 -96.364 -1610.431 0.000 -4378.696 -3001.322 -7003.813 9963.923 2039.911 0.000 -6963.392 1905.553 3563.633 7878.662 2929.380 3471.076 2675.175 7303.681 -788.122 -1429.823 -5355.224 4687.482 974.854 0.000 0.000
-1499.410 18.721 -3335.505 -6766.380 -11484.096 1659.109 9088.319 -9952.411 -169.262 5655.514 -99.140 -1608.297 0.000 -4376.654 -3001.597 -7007.547 9966.461 2062.788 0.000 -6958.408 1907.264 3564.442 7885.264 2947.844 3475.085 2677.492 7309.400 -821.169 -1423.404 -5352.612 4681.138 957.567 0.000 0.000
-1504.909 11.365 -3337.988 -6765.681 -11488.123 1652.286 9086.923 -9949.027 -166.485 5650.328 -102.984 -1606.587 0.000 -4371.266 -3001.138 -7012.015 9963.738 2086.014 0.000 -6953.369 1900.698 3558.833 7889.329 2961.526 3478.174 2679.092 7317.032 -862.601 -1418.090 -5339.169 4687.390 956.777 0.000 0.000
-1511.695 3.255 -3342.309 -6764.394 -11492.132 1641.252 9082.950 -9946.856 -163.671 5642.788 -108.409 -1602.836 0.000 -4361.520 -3002.443 -7018.323 9961.018 2098.023 0.000 -6950.703 1896.984 3552.378 7895.986 2953.416 3480.491 2677.842 7324.700 -881.819 -1411.138 -5319.988 4699.197 968.215 0.000 0.000
-1523.501 -7.356 -3350.180 -6770.444 -11501.069 1627.736 9074.767 -9950.812 -169.133 5632.287 -119.921 -1607.599 0.000 -4361.667 -3009.432 -7028.640 9955.481 2095.908 0.000 -6950.906 1891.228 3546.530 7897.329 2963.365 3479.701 2672.729 7324.682 -784.830 -1410.789 -5308.880 4711.059 982.633 0.000 0.000
-1531.004 -14.620 -3355.568 -6774.472 -11506.163 1620.030 9069.103 -9954.489 -175.110 5627.101 -124.059 -1611.387 0.000 -4366.577 -3013.827 -7035.168 9954.968 2075.201 0.000 -6952.082 1888.267 3542.263 7898.046 2982.215 3477.126 2671.663 7321.538 -734.589 -1410.697 -5305.184 4737.080 1000.747 0.000 0.000
-1527.860 -12.763 -3353.858 -6774.729 -11504.307 1623.800 9070.702 -9955.445 -175.110 5628.958 -122.496 -1613.281 0.000 -4371.414 -3013.128 -7034.212 9956.144 2031.543 0.000 -6952.229 1890.437 3544.066 7895.582 3004.944 3476.317 2671.203 7320.581 -750.827 -1412.279 -5311.621 4752.859 1018.640 0.000 0.000
-1517.745 -2.244 -3346.796 -6770.242 -11497.006 1634.981 9075.575 -9953.055 -170.494 5637.583 -116.629 -1610.155 0.000 -4373.308 -3008.898 -7025.734 9956.843 1969.679 0.000 -6956.312 1893.122 3545.206 7888.813 2986.371 3474.735 2671.718 7316.076 -751.176 -1417.336 -5325.063 4763.083 1028.829 0.000 0.000
-1508.679 8.276 -3340.268 -6768.532 -11488.987 1647.321 9079.640 -9953.221 -169.096 5648.599 -110.027 -1611.111 0.000 -4379.708 -3006.949 -7018.065 9954.470 1898.069 0.000 -6963.833 1892.975 3544.801 7878.056 2954.207 3469.494 2668.812 7305.170 -644.349 -1425.924 -5353.072 4766.762 1025.592 0.000 0.000
-1503.143 14.694 -3337.564 -6768.661 -11485.107 1655.082 9082.104 -9954.931 -170.972 5654.227 -106.864 -1614.256 0.000 -4387.137 -3006.747 -7015.436 9956.696 1835.157 0.000 -6966.500 1896.193 3548.001 7872.943 2941.738 3464.143 2666.991 7298.733 -529.172 -1431.827 -5380.473 4759.590 1012.811 0.000 0.000
-1505.093 13.130 -3340.102 -6774.141 -11487.093 1654.714 9078.941 -9958.223 -174.907 5652.057 -109.604 -1618.486 0.000 -4393.850 -3007.869 -7018.139 9955.758 1782.432 0.000 -6967.125 1894.703 3548.498 7870.608 2972.026 3462.984 2665.391 7295.166 -453.369 -1434.622 -5394.357 4789.676 1000.931 0.000 0.000
-1511.272 7.908 -3344.369 -6777.893 -11492.132 1646.622 9073.369 -9959.933 -178.475 5647.238 -117.108 -1621.980 0.000 -4396.884 -3012.282 -7024.392 9951.215 1737.634 0.000 -6972.440 1889.738 3542.484 7867.188 3002.627 3459.582 2663.332 7292.978 -422.547 -1436.443 -5402.890 4900.034 989.474 0.000 0.000
-1516.550 0.239 -3348.083 -6777.690 -11495.479 1638.384 9070.150 -9960.797 -179.027 5639.900 -120.804 -1621.134 0.000 -4391.808 -3013.404 -7028.346 9945.552 1697.636 0.000 -6972.789 1883.614 3537.041 7869.614 3002.682 3459.545 2659.543 7295.294 -408.148 -1431.698 -5402.504 4981.925 987.396 0.000 0.000
-1527.290 -11.365 -3353.233 -6780.246 -11503.295 1624.830 9064.505 -9961.495 -181.289 5630.963 -131.121 -1620.821 0.000 -4389.160 -3016.990 -7037.541 9941.138 1689.434 0.000 -6969.590 1877.546 3530.844 7874.231 3003.915 3459.085 2658.624 7296.490 -316.952 -1428.020 -5396.950 4987.570 986.237 0.000 0.000
-1539.629 -25.783 -3364.028 -6786.977 -11514.164 1609.272 9057.131 -9966.865 -187.909 5617.924 -142.449 -1625.878 0.000 -4391.771 -3026.001 -7049.751 9937.827 1650.024 0.000 -6968.780 1870.851 3525.014 7875.480 3036.226 3456.530 2653.346 7298.568 -200.764 -1428.094 -5390.624 5034.300 987.322 0.000 0.000
-1553.146 -38.785 -3376.165 -6797.772 -11525.455 1593.898 9044.221 -9977.035 -199.127 5603.580 -157.290 -1637.961 0.000 -4400.856 -3036.814 -7063.783 9930.361 1657.877 0.000 -6973.930 1862.355 3516.536 7869.394 3113.924 3449.486 2644.905 7294.099 -124.795 -1433.372 -5389.907 5104.218 1001.372 0.000 0.000
-1565.633 -50.517 -3389.020 -6811.344 -11540.130 1582.919 9030.428 -9990.460 -213.085 5589.990 -170.861 -1651.532 0.000 -4417.094 -3049.044 -7077.227 9914.086 1644.250 0.000 -6990.572 1847.239 3503.350 7854.185 3212.237 3437.293 2631.646 7282.165 86.359 -1448.305 -5397.502 5145.154 1001.188 0.000 0.000
-1562.966 -47.980 -3389.847 -6814.635 -11538.475 1585.512 9028.074 -9995.903 -216.708 5593.208 -173.951 -1657.215 0.000 -4425.737 -3052.814 -7078.312 9905.535 1632.388 0.000 -7002.655 1842.108 3496.803 7839.878 3242.010 3428.135 2621.991 7269.494 180.535 -1461.288 -5408.849 5164.482 997.474 0.000 0.000
-1555.445 -38.693 -3383.944 -6813.771 -11530.807 1598.312 9032.598 -9995.701 -215.733 5601.171 -168.783 -1658.962 0.000 -4432.597 -3049.614 -7071.415 9903.751 1618.007 0.000 -7009.514 1843.469 3499.507 7832.742 3198.371 3421.313 2619.840 7258.957 218.105 -1467.265 -5419.331 5176.877 988.573 0.000 0.000
-1560.796 -42.499 -3391.999 -6825.357 -11535.918 1596.969 9024.176 -10010.873 -228.661 5596.206 -178.328 -1673.931 0.000 -4451.778 -3060.023 -7078.643 9896.008 1589.999 0.000 -7023.803 1836.021 3490.165 7816.137 3223.933 3406.251 2606.893 7237.532 515.968 -1484.845 -5444.801 5204.903 951.627 0.000 0.000
-1620.141 -101.568 -3453.256 -6889.703 -11599.235 1535.731 8961.595 -10074.980 -293.725 5537.634 -241.001 -1738.646 0.000 -4518.478 -3122.567 -7140.929 9836.554 1524.789 0.000 -7088.628 1775.610 3427.823 7750.190 3155.982 3343.670 2542.969 7169.563 2372.328 -1549.302 -5520.329 5166.468 851.806 0.000 0.000
-1640.131 -120.896 -3470.818 -6907.100 -11616.081 1517.304 8941.586 -10092.101 -311.747 5517.534 -261.874 -1757.183 0.000 -4535.912 -3140.074 -7159.466 9814.669 1498.086 0.000 -7108.029 1753.505 3409.157 7730.476 3171.356 3327.376 2524.781 7151.393 2899.478 -1564.621 -5539.252 5173.254 795.478 0.000 0.000
-1587.774 -69.533 -3416.237 -6849.484 -11561.793 1567.619 8995.763 -10033.363 -253.212 5571.379 -211.154 -1695.576 0.000 -4474.416 -3082.514 -7106.135 9869.361 1550.939 0.000 -7048.133 1806.303 3461.605 7790.703 3149.416 3384.165 2580.099 7213.257 1386.404 -1504.872 -5479.043 5218.732 827.660 0.000 0.000
-1571.628 -55.299 -3396.155 -6825.173 -11541.785 1580.437 9017.757 -10008.353 -228.514 5588.280 -193.500 -1668.911 0.000 -4445.286 -3060.409 -7088.702 9892.423 1573.209 0.000 -7019.904 1827.433 3483.029 7821.524 3079.939 3411.364 2603.822 7246.065 840.552 -1475.283 -5450.079 5231.606 831.835 0.000 0.000
-1564.106 -48.476 -3385.323 -6810.313 -11534.631 1585.273 9030.023 -9992.630 -214.170 5595.562 -185.831 -1655.008 0.000 -4426.878 -3048.161 -7080.536 9908.790 1595.020 0.000 -6995.832 1841.740 3499.562 7847.179 2948.818 3429.257 2622.046 7269.254 534.395 -1452.332 -5426.724 5257.738 856.312 0.000 0.000
-1545.054 -30.068 -3365.241 -6789.368 -11514.936 1602.615 9050.621 -9969.937 -193.150 5613.069 -169.979 -1633.492 0.000 -4405.619 -3027.399 -7061.411 9931.925 1624.113 0.000 -6969.093 1865.169 3521.814 7873.421 3013.790 3455.205 2645.420 7301.437 188.884 -1425.243 -5404.067 4922.635 894.342 0.000 0.000
-1444.810 70.673 -3263.968 -6688.646 -11413.883 1704.606 9149.871 -9869.767 -92.005 5714.969 -72.641 -1531.519 0.000 -4306.736 -2925.389 -6962.050 10031.469 1718.362 0.000 -6870.155 1963.850 3620.421 7970.980 3110.393 3555.229 2745.627 7400.614 -82.056 -1325.367 -5293.046 2377.423 1008.066 0.000 0.000
-1421.510 93.532 -3243.095 -6670.200 -11391.188 1729.101 9170.211 -9852.994 -73.652 5737.791 -54.159 -1516.274 0.000 -4292.042 -2905.841 -6939.191 10045.759 1729.947 0.000 -6861.254 1977.385 3636.696 7979.495 3064.823 3568.616 2760.100 7402.840 -219.852 -1313.046 -5265.572 2087.118 1036.699 0.000 0.000
-1442.125 74.829 -3267.958 -6699.735 -11414.104 1712.183 9143.563 -9882.805 -102.469 5717.267 -78.783 -1547.096 0.000 -4326.707 -2933.352 -6962.050 10016.150 1705.489 0.000 -6894.374 1950.535 3609.976 7941.851 2984.605 3533.896 2728.506 7362.841 -26.224 -1349.311 -5293.433 2730.897 1007.974 0.000 0.000
-1469.214 49.120 -3298.136 -6733.112 -11443.380 1688.515 9110.608 -9920.743 -139.231 5690.473 -112.694 -1585.770 0.000 -4369.722 -2967.852 -6991.897 9985.862 1677.554 0.000 -6929.978 1921.718 3580.625 7900.418 2943.798 3496.785 2693.639 7317.418 328.868 -1388.721 -5339.463 3367.798 937.173 0.000 0.000
-1446.079 71.905 -3276.399 -6715.440 -11421.349 1710.840 9129.349 -9902.133 -121.172 5713.976 -95.757 -1568.336 0.000 -4354.715 -2948.377 -6970.307 10005.503 1714.040 0.000 -6911.882 1942.738 3600.652 7914.302 2969.286 3515.193 2712.690 7331.358 411.679 -1371.968 -6064.342 3472.602 952.381 0.000 0.000
-1341.642 175.128 -3173.507 -6610.984 -11317.979 1812.758 9233.307 -9798.413 -15.540 5818.044 3.181 -1463.164 0.000 -4249.911 -2843.388 -6866.532 10107.494 1826.973 0.000 -6810.479 2044.821 3704.188 8017.709 3039.959 3618.674 2815.013 7434.654 -1661.757 -1269.535 -6773.828 3476.593 1068.294 0.000 0.000
-1125.542 390.843 -2955.825 -6390.323 -11099.156 2029.723 9453.178 -9577.660 205.747 6036.793 216.303 -1240.056 0.000 -4028.955 -2623.242 -6648.739 10326.225 1975.546 0.000 -6585.128 2260.756 3920.656 8240.191 3230.296 3840.090 3034.718 7656.585 -8179.725 -1045.766 -6235.700 3638.112 1280.238 0.000 0.000
-1182.128 332.271 -3009.983 -6440.454 -11154.308 1972.603 9399.056 -9624.756 156.830 5979.196 157.124 -1287.723 0.000 -4074.433 -2675.083 -6703.982 10274.530 1901.305 0.000 -6629.595 2207.756 3867.987 8196.533 4663.723 3793.305 2984.201 7611.658 -8420.689 -1090.490 -6042.733 3564.276 1274.298 0.000 0.000
-1071.144 442.261 -2894.053 -6320.845 -11040.032 2080.976 9515.281 -9504.246 277.946 6092.240 267.850 -1165.926 0.000 -3949.694 -2557.681 -6589.248 10389.339 2014.864 0.000 -6511.200 2321.002 3982.318 8320.519 1118.811 3915.709 3107.285 7739.340 -8100.317 -963.213 -6028.573 3683.168 1427.377 0.000 0.000
-1038.961 473.708 -2859.590 -6283.054 -11005.238 2112.000 9551.067 -9465.297 316.326 6123.098 303.270 -1126.958 0.000 -3910.210 -2521.839 -6555.870 10426.506 2061.777 0.000 -6471.828 2354.748 4016.652 8364.104 4.064 3955.156 3144.984 7781.545 -7836.531 -922.479 -6176.649 3716.435 1469.582 0.000 0.000
-1111.455 400.350 -2932.065 -6355.603 -11079.368 2036.472 9477.729 -9537.109 242.288 6049.685 229.452 -1198.771 0.000 -3982.888 -2595.951 -6630.386 10353.479 1999.710 0.000 -6544.780 2280.691 3942.872 8290.782 214.280 3880.584 3070.302 7709.309 -5930.003 -996.352 -6322.169 3639.639 1399.369 0.000 0.000
-1212.655 300.621 -3033.633 -6461.915 -11180.532 1938.104 9375.792 -9641.730 136.895 5948.632 126.505 -1305.175 0.000 -4090.396 -2697.427 -6732.377 10248.509 1886.869 0.000 -6650.045 2177.468 3838.600 8183.899 556.720 3774.768 2964.358 7599.631 -3305.603 -1103.382 -6459.561 3525.381 1291.787 0.000 0.000
-1238.401 276.052 -3062.469 -6494.245 -11206.737 1911.972 9345.596 -9675.071 104.786 5922.997 96.290 -1339.215 0.000 -4126.587 -2728.948 -6760.643 10216.142 1828.610 0.000 -6687.652 2146.867 3809.433 8145.373 824.571 3740.066 2930.336 7560.313 -2619.343 -1141.486 -6519.715 3478.487 1262.621 0.000 0.000
-1221.887 294.406 -3048.143 -6485.142 -11192.964 1931.079 9356.648 -9667.862 112.289 5939.823 106.938 -1332.484 0.000 -4123.682 -2717.858 -6745.838 10225.410 1791.370 0.000 -6682.356 2158.397 3821.001 8145.593 772.214 3745.528 2938.446 7556.102 -2723.394 -1139.224 -6534.832 3468.409 1252.083 0.000 0.000
-1207.340 307.867 -3036.980 -6477.418 -11178.453 1948.568 9366.653 -9660.525 122.018 5953.229 117.475 -1325.110 0.000 -4118.128 -2707.799 -6733.793 10234.146 1768.070 0.000 -6677.391 2167.887 3829.276 8148.591 645.673 3751.523 2947.476 7556.047 -2777.534 -1133.964 -6541.820 3459.398 1252.580 0.000 0.000
-1189.521 326.275 -3019.988 -6460.002 -11161.683 1966.516 9383.111 -9642.576 138.771 5972.134 131.911 -1309.405 0.000 -4100.069 -2690.053 -6714.907 10251.120 1767.389 0.000 -6659.552 2184.953 3841.322 8165.105 580.002 3769.674 2964.192 7572.800 -2777.883 -1117.285 -6528.965 3462.690 894.287 0.000 0.000
-1179.774 336.592 -3008.071 -6446.468 -11152.358 1974.976 9396.003 -9629.096 151.846 5982.764 143.111 -1295.281 0.000 -4086.810 -2678.963 -6706.006 10264.545 1774.709 0.000 -6643.645 2196.023 3853.054 8176.396 540.188 3784.313 2976.789 7587.641 -2771.263 -1101.175 -6513.462 3472.565 600.967 0.000 0.000
-1189.116 323.995 -3013.459 -6448.932 -11158.703 1963.077 9391.332 -9630.622 149.676 5972.796 135.589 -1297.194 0.000 -4084.916 -2682.384 -6712.350 10260.535 1768.603 0.000 -6640.022 2191.334 3846.379 8167.515 499.914 3784.883 2974.601 7596.339 -2775.474 -1098.049 -6507.743 3471.922 740.639 0.000 0.000
-1199.102 313.255 -3020.190 -6451.377 -11166.629 1949.579 9385.889 -9631.284 147.727 5961.910 125.622 -1296.164 0.000 -4080.815 -2686.945 -6721.196 10257.667 1766.746 0.000 -6636.216 2185.192 3841.818 8181.197 479.979 3783.743 2971.015 7602.996 -2776.964 -1096.375 -6498.990 3476.574 831.559 0.000 0.000
-1207.524 304.980 -3025.744 -6453.235 -11173.213 1939.465 9382.118 -9631.045 144.398 5954.535 118.321 -1298.095 0.000 -4080.429 -2691.983 -6730.207 10254.798 1770.608 0.000 -6635.572 2179.546 3832.991 8183.274 460.063 3781.830 2968.790 7609.451 -2780.347 -1092.899 -6494.116 3477.273 932.318 0.000 0.000
-1208.591 302.166 -3025.799 -6455.167 -11176.302 1935.584 9379.562 -9631.101 141.640 5950.986 113.521 -1299.768 0.000 -4081.054 -2694.337 -6732.874 10252.149 1784.143 0.000 -6636.142 2175.151 3825.672 8183.808 437.406 3781.187 2967.392 7613.534 -2793.165 -1094.407 -6494.649 3469.458 1010.200 0.000 0.000
-1232.553 276.604 -3052.464 -6482.751 -11200.228 1912.027 9351.297 -9659.513 115.397 5925.424 86.396 -1327.629 0.000 -4111.397 -2721.058 -6759.135 10224.729 1750.526 0.000 -6665.622 2148.890 3797.039 8153.152 390.769 3751.689 2939.090 7573.278 -2837.651 -1123.684 -6529.591 3432.365 1874.732 0.000 0.000
-1254.768 256.780 -3076.518 -6509.729 -11222.517 1891.724 9326.709 -9688.992 87.849 5904.091 61.092 -1357.495 0.000 -4141.925 -2747.319 -6783.151 10198.341 1717.221 0.000 -6695.248 2123.879 3768.626 8123.378 344.426 3721.805 2911.468 7539.091 -2884.490 -1155.830 -6568.283 3389.516 2720.433 0.000 0.000
-1259.862 254.370 -3085.897 -6522.970 -11230.277 1888.267 9315.491 -9702.417 74.921 5900.321 52.503 -1374.156 0.000 -4160.076 -2757.893 -6790.324 10185.597 1690.630 0.000 -6712.865 2113.452 3756.930 8102.432 310.901 3707.093 2896.756 7523.735 -2919.578 -1173.723 -6595.923 3358.143 3154.455 0.000 0.000
-1257.913 256.780 -3086.247 -6525.839 -11229.137 1894.299 9313.744 -9707.144 72.751 5902.951 53.570 -1378.165 0.000 -4167.892 -2759.769 -6787.749 10182.985 1679.816 0.000 -6717.720 2112.459 3754.411 8091.692 293.265 3701.208 2894.182 7519.396 -2940.966 -1179.921 -6611.775 3339.771 3287.378 0.000 0.000
-1254.786 259.005 -3085.713 -6526.280 -11227.316 1897.112 9313.744 -9708.137 72.199 5903.687 53.074 -1378.735 0.000 -4168.186 -2759.254 -6787.823 10182.801 1676.028 0.000 -6719.357 2113.103 3753.841 8093.715 286.645 3701.539 2892.545 7510.201 -2953.986 -1181.447 -6615.729 3332.011 3325.960 0.000 0.000
-1257.729 255.327 -3086.725 -6524.349 -11228.585 1894.078 9312.586 -9707.916 71.500 5900.358 50.131 -1379.140 0.000 -4167.928 -2761.663 -6790.986 10181.495 1673.582 0.000 -6718.106 2110.492 3750.291 8098.147 288.723 3702.679 2892.802 7510.164 -2957.737 -1179.994 -6611.536 3333.574 3346.925 0.000 0.000
-1262.455 248.357 -3089.741 -6526.501 -11232.962 1885.600 9309.661 -9706.004 72.107 5894.510 43.621 -1378.202 0.000 -4164.342 -2762.895 -6794.884 10180.023 1675.182 0.000 -6714.888 2106.851 3745.767 8102.469 297.513 3703.728 2892.600 7514.816 -2958.749 -1177.181 -6605.982 3339.642 3362.814 0.000 0.000
-1271.797 239.971 -3093.161 -6526.299 -11239.913 1873.959 9305.763 -9705.157 72.365 5887.430 36.044 -1377.816 0.000 -4159.671 -2765.286 -6803.344 10178.387 1678.014 0.000 -6710.658 2104.073 3740.066 8110.965 311.986 3704.206 2891.717 7516.618 -2954.666 -1171.940 -6594.691 3348.635 3374.326 0.000 0.000
-1276.781 233.093 -3095.809 -6527.126 -11242.764 1865.040 9303.520 -9703.907 71.537 5882.354 30.546 -1376.639 0.000 -4156.104 -2767.861 -6808.364 10177.633 1683.329 0.000 -6706.870 2101.039 3736.260 8119.406 321.420 3705.236 2892.765 7511.561 -2953.820 -1167.618 -6585.938 3355.789 3379.586 0.000 0.000
-1276.947 232.578 -3097.042 -6525.949 -11243.959 1863.422 9303.557 -9702.013 70.654 5880.901 29.847 -1376.271 0.000 -4153.804 -2768.964 -6807.849 10177.485 1684.561 0.000 -6705.877 2099.329 3735.267 8122.827 325.963 3706.744 2893.869 7511.690 -2957.553 -1164.804 -6581.836 3357.187 3367.099 0.000 0.000
-1275.365 233.240 -3096.159 -6525.949 -11241.696 1866.309 9303.777 -9702.270 70.268 5881.508 30.583 -1376.841 0.000 -4154.706 -2768.872 -6805.440 10178.718 1687.540 0.000 -6705.730 2099.108 3734.549 8121.539 321.549 3706.781 2893.759 7536.958 -2966.785 -1167.802 -6584.209 3351.504 3354.502 0.000 0.000
-1268.745 240.799 -3090.458 -6524.294 -11235.389 1876.185 9307.823 -9702.436 73.303 5888.699 35.272 -1377.043 0.000 -4155.073 -2765.617 -6798.801 10180.079 1687.871 0.000 -6706.024 2104.478 3736.683 8114.644 312.979 3706.486 2894.788 7527.910 -2980.743 -1168.997 -6591.381 3338.907 3338.355 0.000 0.000
-1257.821 253.764 -3083.764 -6521.627 -11227.556 1889.554 9314.003 -9701.443 75.528 5897.986 41.046 -1376.657 0.000 -4159.395 -2760.505 -6791.722 10182.396 1688.073 0.000 -6708.470 2110.105 3738.981 8110.855 298.286 3706.376 2897.087 7516.067 -2999.759 -1169.770 -6603.316 3323.055 3318.935 0.000 0.000
-1248.865 263.179 -3079.829 -6521.315 -11219.482 1900.735 9317.055 -9702.196 76.153 5907.641 46.490 -1377.889 0.000 -4162.080 -2757.103 -6784.531 10184.272 1691.089 0.000 -6708.341 2114.243 3741.832 8107.673 286.461 3706.339 2899.772 7507.129 -3013.992 -1173.245 -6612.253 3309.520 3301.833 0.000 0.000
-1244.451 267.207 -3077.162 -6519.751 -11217.625 1903.604 9317.422 -9701.424 77.826 5910.822 49.524 -1377.338 0.000 -4161.583 -2755.889 -6781.607 10186.037 1690.482 0.000 -6708.341 2115.733 3744.793 8108.483 282.470 3708.068 2900.857 7502.863 -3023.188 -1173.245 -6616.888 3302.237 3290.394 0.000 0.000
-1246.787 266.048 -3077.732 -6518.869 -11217.680 1901.287 9315.914 -9700.597 77.753 5908.652 45.460 -1377.668 0.000 -4159.984 -2757.746 -6781.883 10184.309 1693.296 0.000 -6706.465 2115.457 3742.145 8111.885 285.339 3709.484 2901.151 7511.911 -3028.539 -1170.615 -6613.191 3301.336 3286.477 0.000 0.000
-1251.017 259.832 -3080.766 -6518.961 -11223.712 1895.255 9313.119 -9698.702 77.918 5905.103 40.715 -1375.811 0.000 -4157.188 -2759.254 -6786.609 10183.150 1699.585 0.000 -6705.307 2113.912 3738.871 8115.158 293.008 3709.980 2900.434 7516.600 -3026.608 -1167.949 -6606.056 3307.479 3288.151 0.000 0.000
-1259.550 248.872 -3084.205 -6520.138 -11228.971 1883.430 9309.423 -9697.636 75.638 5896.331 32.054 -1376.124 0.000 -4155.441 -2761.442 -6793.009 10180.723 1708.633 0.000 -6701.519 2107.623 3734.402 8121.484 306.341 3708.197 2898.650 7537.455 -3020.613 -1165.650 -6595.188 3315.349 3295.304 0.000 0.000
-1267.788 239.879 -3088.545 -6521.811 -11234.415 1872.102 9306.186 -9697.894 75.546 5887.761 24.974 -1375.811 0.000 -4149.501 -2766.169 -6800.401 10177.945 1712.863 0.000 -6698.190 2102.823 3728.904 8127.737 316.676 3707.295 2897.381 7566.695 -3017.597 -1163.609 -6585.588 3323.036 3299.865 0.000 0.000
-1270.050 237.728 -3089.483 -6521.554 -11235.775 1868.351 9304.623 -9697.875 75.804 5884.727 21.093 -1374.561 0.000 -4148.453 -2767.622 -6803.271 10177.763 1716.026 0.000 -6697.712 2102.400 3727.212 8134.063 320.777 3708.141 2897.161 7571.366 -3019.399 -1162.175 -6581.708 3324.177 3298.265 0.000 0.000
-1268.671 239.346 -3087.810 -6520.230 -11233.826 1871.293 9305.064 -9695.907 76.208 5887.614 19.861 -1375.719 0.000 -4147.405 -2766.261 -6801.101 10178.093 1717.939 0.000 -6698.300 2103.209 3727.892 8135.294 320.188 3708.564 2897.179 7566.621 -3025.854 -1161.843 -6582.885 3321.013 3290.725 0.000 0.000
-1260.377 245.598 -3083.341 -6517.784 -11229.302 1878.759 9305.874 -9696.551 77.146 5893.425 24.164 -1375.848 0.000 -4148.987 -2763.042 -6795.473 10178.498 1714.702 0.000 -6698.153 2106.041 3731.405 8128.785 311.067 3708.969 2899.901 7562.392 -3036.355 -1161.954 -6588.807 3311.432 3277.871 0.000 0.000
-1251.237 255.768 -3079.810 -6516.386 -11220.493 1891.375 9310.159 -9697.158 79.114 5901.848 30.601 -1376.344 0.000 -4151.598 -2759.585 -6788.080 10181.366 1708.210 0.000 -6700.103 2111.963 3734.917 8123.010 298.856 3710.293 2902.659 7556.506 -3051.214 -1165.246 -6598.755 3298.449 3261.320 0.000 0.000
-1241.638 266.434 -3073.999 -6516.000 -11212.917 1903.586 9314.112 -9697.911 81.008 5911.080 35.769 -1376.620 0.000 -4154.154 -2756.146 -6779.639 10186.020 1704.845 0.000 -6702.420 2117.314 3740.342 8114.275 283.611 3709.281 2904.480 7554.410 -3066.018 -1167.986 -6608.005 3283.755 3243.408 0.000 0.000
-1237.298 271.786 -3071.222 -6514.400 -11209.644 1909.121 9317.422 -9696.882 83.454 5914.666 35.805 -1378.386 0.000 -4155.552 -2751.677 -6775.208 10186.313 1703.080 0.000 -6702.640 2121.231 3742.402 8109.457 277.781 3708.767 2906.595 7552.424 -3074.808 -1168.482 -6611.996 3275.866 3232.484 0.000 0.000
-1237.481 272.025 -3071.277 -6513.076 -11209.312 1907.944 9316.669 -9696.091 84.061 5915.438 30.638 -1377.025 0.000 -4152.996 -2752.652 -6775.649 10186.368 1704.569 0.000 -6701.390 2122.666 3741.795 8110.983 277.707 3711.323 2906.944 7545.344 -3077.254 -1167.839 -6610.672 3278.698 3229.560 0.000 0.000
-1242.355 267.004 -3073.944 -6512.653 -11212.751 1902.611 9313.965 -9695.760 83.325 5911.171 24.275 -1376.161 0.000 -4149.979 -2754.381 -6780.743 10185.302 1707.346 0.000 -6699.753 2120.532 3741.446 8116.022 287.381 3712.261 2907.275 7545.620 -3075.636 -1165.908 -6602.470 3283.902 3233.348 0.000 0.000
-1251.072 257.754 -3076.905 -6513.297 -11217.552 1893.949 9311.188 -9693.756 82.792 5903.779 15.411 -1376.491 0.000 -4147.607 -2757.783 -6787.657 10184.346 1713.764 0.000 -6694.328 2115.806 3737.253 8120.748 299.242 3713.070 2906.944 7550.382 -3069.015 -1161.347 -6592.484 3291.534 3241.716 0.000 0.000
-1256.828 248.339 -3080.068 -6513.389 -11223.067 1883.191 9306.665 -9692.027 81.744 5897.066 6.878 -1375.554 0.000 -4142.716 -2760.983 -6795.657 10181.422 1717.700 0.000 -6691.441 2111.466 3733.611 8128.215 311.674 3713.732 2904.369 7556.286 -3062.524 -1158.386 -6582.866 3302.605 3250.727 0.000 0.000
-1260.469 243.061 -3081.061 -6511.991 -11226.213 1875.008 9308.742 -9690.905 82.589 5893.425 -0.828 -1375.977 0.000 -4139.442 -2763.576 -6798.158 10180.208 1721.175 0.000 -6691.349 2108.781 3731.478 8132.334 318.257 3713.787 2904.535 7559.780 -3061.016 -1158.313 -6576.945 3308.747 3254.368 0.000 0.000
-1259.237 243.318 -3081.189 -6511.568 -11226.654 1878.097 9313.505 -9690.519 83.546 5892.285 -8.790 -1375.682 0.000 -4138.964 -2763.079 -6797.974 10179.215 1722.867 0.000 -6692.416 2111.411 3731.478 8133.548 318.313 3714.504 2905.326 7556.819 -3062.947 -1156.805 -6576.540 3307.809 3250.506 0.000 0.000
-1254.345 249.001 -3077.438 -6511.090 -11223.160 1883.485 9317.073 -9691.475 85.238 5898.299 -10.611 -1376.289 0.000 -4140.490 -2760.597 -6793.542 10180.943 1722.757 0.000 -6692.544 2115.034 3733.005 8131.948 310.901 3713.695 2906.613 7553.711 -3071.627 -1158.405 -6579.538 3299.350 3240.428 0.000 0.000
-1246.106 257.515 -3072.638 -6508.975 -11216.006 1893.067 9323.031 -9692.726 86.323 5903.797 -5.572 -1377.908 0.000 -4142.329 -2757.617 -6786.039 10184.456 1710.436 0.000 -6692.452 2119.705 3738.154 8125.641 298.985 3715.074 2908.323 7550.309 -3084.260 -1159.894 -6588.567 3288.334 3228.015 0.000 0.000
-1237.886 267.354 -3070.045 -6507.964 -11209.496 1904.377 9327.298 -9691.935 87.021 5913.618 8.073 -1379.103 0.000 -4146.283 -2754.050 -6779.823 10185.945 1710.619 0.000 -6695.505 2124.266 3743.045 8119.480 286.075 3715.313 2907.937 7544.700 -3098.458 -1163.002 -6598.130 3275.553 3211.427 0.000 0.000
-1233.656 272.871 -3068.703 -6508.185 -11205.929 1911.972 9327.537 -9693.424 87.518 5918.380 33.341 -1382.303 0.000 -4149.612 -2752.413 -6775.336 10185.523 1719.759 0.000 -6698.374 2128.036 3744.333 8116.831 276.586 3713.382 2909.335 7539.716 -3108.572 -1166.790 -6605.026 3264.574 3199.051 0.000 0.000
-1234.116 273.680 -3068.427 -6508.497 -11205.267 1912.174 9328.530 -9695.209 87.518 5917.976 44.816 -1382.689 0.000 -4149.667 -2751.861 -6774.417 10184.971 1718.950 0.000 -6697.657 2127.870 3742.733 8116.427 275.942 3714.339 2911.119 7536.351 -3112.673 -1166.938 -6605.081 3262.791 3196.513 0.000 0.000
-1236.709 269.266 -3068.537 -6506.364 -11207.289 1906.583 9327.666 -9691.807 88.290 5914.390 37.736 -1381.549 0.000 -4147.203 -2753.847 -6778.352 10184.512 1713.911 0.000 -6695.560 2128.109 3741.225 8118.468 281.146 3713.713 2911.156 7539.496 -3111.882 -1166.055 -6599.031 3269.338 3199.713 0.000 0.000
-1242.851 259.759 -3070.137 -6506.345 -11212.844 1898.952 9326.194 -9692.027 87.058 5908.597 28.082 -1381.089 0.000 -4142.182 -2756.109 -6781.681 10184.217 1712.330 0.000 -6691.533 2124.928 3738.706 8123.084 292.180 3714.946 2908.103 7542.438 -3105.280 -1162.505 -6590.057 3277.540 3207.952 0.000 0.000
-1251.145 252.072 -3074.183 -6505.113 -11219.482 1886.391 9323.362 -9690.150 88.511 5899.328 22.031 -1378.275 0.000 -4138.964 -2758.849 -6788.742 10183.021 1712.458 0.000 -6688.461 2119.926 3734.090 8126.082 305.440 3715.442 2908.048 7544.645 -3096.674 -1159.140 -6579.317 3288.776 3218.894 0.000 0.000
-1255.945 245.010 -3077.199 -6505.794 -11221.744 1879.054 9319.556 -9689.269 87.867 5893.701 22.712 -1378.551 0.000 -4134.899 -2761.534 -6793.708 10180.281 1713.562 0.000 -6688.314 2117.646 3731.533 8131.562 313.163 3717.336 2906.374 7547.275 -3091.819 -1157.044 -6571.942 3296.353 3225.110 0.000 0.000
-1257.766 243.686 -3077.180 -6506.732 -11221.082 1880.396 9318.930 -9688.827 87.849 5892.965 31.061 -1378.331 0.000 -4134.348 -2760.983 -6793.469 10179.858 1709.461 0.000 -6687.468 2116.799 3730.780 8131.194 315.057 3716.876 2906.448 7546.374 -3094.412 -1156.363 -6569.828 3295.672 3223.638 0.000 0.000
-1250.759 249.074 -3074.477 -6507.798 -11220.659 1882.731 9318.637 -9688.238 89.725 5898.115 45.515 -1378.202 0.000 -4135.157 -2760.339 -6789.938 10181.348 1705.397 0.000 -6687.561 2120.606 3733.722 8125.015 308.290 3716.784 2906.815 7544.222 -3103.717 -1158.956 -6574.683 3290.376 3214.333 0.000 0.000
-1245.371 255.970 -3071.167 -6505.389 -11215.730 1890.529 9319.869 -9690.887 88.989 5904.018 57.561 -1378.882 0.000 -4138.725 -2756.863 -6783.869 10181.789 1701.498 0.000 -6690.356 2124.597 3737.087 8120.215 299.518 3715.847 2909.280 7539.533 -3113.335 -1160.244 -6582.609 3281.788 3205.506 0.000 0.000
-1236.838 266.563 -3066.404 -6503.219 -11207.051 1905.204 9320.218 -9692.229 91.178 5913.544 57.230 -1379.250 0.000 -4141.060 -2753.369 -6775.483 10185.560 1697.103 0.000 -6691.864 2131.217 3740.397 8113.668 286.424 3716.159 2910.972 7534.788 -3127.551 -1162.377 -6593.054 3268.804 3190.720 0.000 0.000
-1230.401 274.250 -3063.903 -6501.932 -11201.147 1914.399 9319.428 -9692.854 92.888 5919.245 58.940 -1380.464 0.000 -4144.996 -2749.838 -6769.120 10187.490 1693.241 0.000 -6692.416 2136.183 3744.388 8110.800 276.751 3715.442 2913.454 7532.563 -3138.529 -1164.069 -6599.932 3260.234 3179.962 0.000 0.000
-1227.772 278.314 -3062.045 -6501.233 -11200.338 1915.815 9319.648 -9692.432 91.251 5922.205 62.287 -1379.526 0.000 -4144.462 -2751.071 -6768.274 10188.171 1690.372 0.000 -6692.967 2138.205 3747.128 8108.704 273.680 3716.729 2913.491 7533.372 -3144.984 -1166.147 -6600.833 3256.704 3176.321 0.000 0.000
-1230.328 274.066 -3063.866 -6501.968 -11202.581 1912.211 9319.022 -9691.824 92.299 5918.196 64.549 -1379.710 0.000 -4143.322 -2751.843 -6770.886 10187.711 1691.714 0.000 -6692.600 2137.396 3743.469 8110.597 278.645 3716.950 2913.160 7533.685 -3142.502 -1163.682 -6596.677 3260.326 3178.123 0.000 0.000
-1236.470 265.239 -3066.293 -6501.858 -11207.621 1904.193 9313.726 -9690.316 91.748 5912.146 58.333 -1379.324 0.000 -4140.435 -2754.417 -6774.324 10186.110 1695.687 0.000 -6690.264 2134.950 3742.420 8114.956 288.245 3717.281 2911.689 7538.208 -3138.603 -1162.487 -6589.174 3268.675 3188.477 0.000 0.000
-1247.854 254.977 -3070.505 -6503.661 -11214.352 1894.078 9309.827 -9689.434 90.920 5901.792 53.809 -1378.331 0.000 -4136.867 -2757.231 -6782.361 10183.481 1700.873 0.000 -6685.298 2129.525 3737.124 8121.024 302.037 3718.532 2910.144 7542.990 -3127.808 -1159.490 -6576.908 3279.617 3199.695 0.000 0.000
-1252.396 248.872 -3072.638 -6504.139 -11219.574 1884.148 9308.540 -9688.956 90.994 5896.919 45.368 -1376.620 0.000 -4133.263 -2760.505 -6788.558 10182.487 1701.903 0.000 -6683.221 2126.712 3733.538 8126.247 309.430 3718.274 2908.452 7547.937 -3123.192 -1156.731 -6568.890 3289.732 3209.644 0.000 0.000
-1254.658 246.408 -3073.944 -6502.336 -11220.365 1881.499 9307.842 -9688.367 90.883 5895.209 49.708 -1377.834 0.000 -4132.178 -2761.553 -6790.324 10180.870 1701.259 0.000 -6682.944 2124.247 3732.949 8128.288 312.630 3718.219 2908.231 7548.212 -3123.891 -1154.984 -6565.800 3291.387 3211.520 0.000 0.000
-1252.285 250.251 -3072.712 -6503.219 -11217.955 1884.938 9308.761 -9689.563 91.067 5897.563 53.221 -1378.147 0.000 -4131.718 -2762.307 -6786.370 10182.562 1699.512 0.000 -6683.368 2128.091 3733.832 8127.682 307.058 3717.814 2908.912 7547.275 -3129.426 -1157.044 -6567.566 3287.323 3206.333 0.000 0.000
-1246.015 255.382 -3068.813 -6502.189 -11213.046 1892.956 9311.501 -9689.323 91.674 5903.116 57.193 -1378.956 0.000 -4134.550 -2760.229 -6780.577 10184.769 1695.760 0.000 -6685.225 2132.210 3737.915 8124.518 298.874 3718.973 2910.677 7543.597 -3139.357 -1158.441 -6575.474 3277.742 3195.428 0.000 0.000
-1236.507 267.225 -3064.142 -6502.594 -11206.572 1905.149 9314.480 -9690.078 93.017 5912.054 62.636 -1380.390 0.000 -4138.706 -2754.988 -6772.614 10186.479 1688.423 0.000 -6685.722 2137.746 3741.391 8120.988 286.719 3717.741 2913.748 7539.606 -3153.885 -1162.230 -6586.140 3265.660 3181.783 0.000 0.000
-1230.162 273.092 -3060.170 -6499.798 -11199.105 1915.650 9320.162 -9690.795 93.109 5919.649 71.574 -1381.016 0.000 -4142.458 -2750.887 -6765.552 10187.416 1683.531 0.000 -6688.130 2143.888 3745.216 8111.608 275.905 3717.575 2914.006 7535.689 -3166.317 -1165.062 -6594.029 3255.380 3170.160 0.000 0.000
-1226.595 274.820 -3058.827 -6499.504 -11196.788 1920.321 9322.571 -9691.365 94.800 5923.732 72.254 -1381.071 0.000 -4143.065 -2750.041 -6762.224 10188.594 1681.195 0.000 -6688.130 2146.849 3747.533 8108.335 270.002 3718.182 2917.206 7534.144 -3173.893 -1165.742 -6598.516 3249.623 3165.618 0.000 0.000
-1227.036 273.625 -3059.783 -6499.026 -11198.003 1918.243 9321.082 -9691.549 95.205 5921.912 70.673 -1380.721 0.000 -4140.251 -2751.861 -6762.500 10187.896 1680.809 0.000 -6687.855 2144.476 3746.172 8108.997 271.675 3718.752 2917.077 7534.825 -3173.507 -1163.848 -6594.139 3252.125 3166.960 0.000 0.000
-1234.778 266.324 -3062.542 -6498.769 -11203.207 1909.489 9316.411 -9690.041 94.800 5915.438 69.533 -1379.783 0.000 -4137.971 -2753.314 -6767.539 10185.908 1683.218 0.000 -6685.482 2141.552 3743.873 8112.583 279.418 3719.745 2915.496 7538.448 -3165.967 -1161.421 -6587.482 3260.750 3175.806 0.000 0.000
-1243.219 255.750 -3066.827 -6499.909 -11209.238 1898.547 9313.523 -9688.110 92.465 5907.034 63.758 -1378.882 0.000 -4134.292 -2756.863 -6774.196 10185.118 1688.018 0.000 -6682.871 2137.102 3739.570 8119.406 291.794 3720.407 2913.031 7543.155 -3158.336 -1158.717 -6575.197 3271.360 3186.987 0.000 0.000
-1250.833 247.493 -3069.935 -6500.902 -11215.730 1888.837 9312.844 -9688.625 91.472 5898.445 62.710 -1378.662 0.000 -4130.891 -2760.523 -6779.106 10183.315 1692.266 0.000 -6680.241 2131.769 3737.896 8123.286 301.320 3718.973 2911.799 7547.514 -3151.384 -1155.903 -6564.623 3281.015 3196.789 0.000 0.000
-1255.136 243.005 -3071.645 -6501.527 -11218.011 1883.173 9312.696 -9688.331 91.178 5895.577 63.335 -1379.177 0.000 -4130.045 -2763.576 -6777.340 10180.852 1694.491 0.000 -6677.758 2130.647 3734.439 8125.291 304.152 3719.469 2911.431 7549.445 -3147.853 -1154.506 -6561.037 3285.024 3202.159 0.000 0.000
-1252.764 243.925 -3071.148 -6501.086 -11218.103 1884.460 9315.473 -9687.007 90.957 5896.735 65.321 -1379.471 0.000 -4128.647 -2762.601 -6774.710 10181.091 1693.664 0.000 -6678.145 2130.022 3735.818 8124.279 303.214 3719.286 2910.365 7548.047 -3152.249 -1155.444 -6563.373 3282.817 3199.474 0.000 0.000
-1246.934 248.449 -3069.181 -6501.031 -11212.990 1891.779 9319.592 -9689.673 91.895 5901.977 70.434 -1379.747 0.000 -4131.829 -2760.247 -6768.642 10183.169 1690.777 0.000 -6677.612 2135.539 3738.190 8119.351 294.608 3718.771 2911.670 7545.473 -3163.080 -1156.437 -6569.239 3275.241 3190.021 0.000 0.000
-1239.045 257.865 -3065.098 -6499.744 -11205.800 1903.402 9325.349 -9690.427 91.490 5910.086 76.521 -1380.997 0.000 -4136.757 -2756.679 -6760.605 10185.044 1684.781 0.000 -6680.425 2140.430 3742.034 8114.091 281.900 3718.458 2915.073 7539.827 -3174.684 -1158.975 -6577.128 3263.287 3177.204 0.000 0.000
-1231.707 266.434 -3060.777 -6498.861 -11199.474 1913.792 9328.162 -9690.850 93.936 5917.921 83.491 -1381.696 0.000 -4139.791 -2753.737 -6751.539 10186.755 1679.706 0.000 -6683.533 2145.929 3745.712 8108.409 270.351 3718.605 2917.334 7536.884 -3187.667 -1162.910 -6586.949 3251.242 3164.845 0.000 0.000
-1226.466 272.098 -3057.374 -6497.831 -11196.550 1919.181 9330.020 -9691.016 94.856 5923.989 86.139 -1381.806 0.000 -4139.938 -2753.075 -6748.137 10189.495 1676.764 0.000 -6683.901 2149.092 3747.992 8105.687 261.892 3718.477 2917.390 7535.211 -3197.065 -1163.094 -6593.054 3244.860 3156.552 0.000 0.000
-1227.588 270.296 -3057.209 -6497.555 -11196.163 1918.279 9331.914 -9690.979 95.352 5922.776 85.219 -1381.530 0.000 -4140.968 -2752.689 -6747.015 10187.416 1676.028 0.000 -6681.584 2150.085 3747.073 8105.724 261.929 3719.672 2918.346 7535.505 -3198.922 -1163.388 -6591.877 3245.707 3156.405 0.000 0.000
-1232.498 263.805 -3060.960 -6497.169 -11200.283 1912.082 9329.504 -9690.243 94.138 5917.884 83.362 -1381.806 0.000 -4138.394 -2754.381 -6751.521 10186.056 1678.363 0.000 -6678.825 2146.389 3744.995 8108.813 269.984 3718.237 2917.537 7538.117 -3193.975 -1161.328 -6583.455 3251.518 3164.386 0.000 0.000
-1241.380 254.830 -3065.576 -6496.912 -11206.885 1902.335 9322.977 -9690.390 94.690 5909.057 81.357 -1379.783 0.000 -4134.679 -2757.672 -6757.755 10185.816 1682.943 0.000 -6675.735 2141.792 3741.243 8113.852 281.312 3718.366 2916.396 7541.610 -3185.093 -1158.441 -6574.094 3261.816 3174.537 0.000 0.000
-1248.350 244.973 -3068.813 -6497.905 -11211.832 1891.117 9312.659 -9687.521 94.028 5900.634 77.532 -1379.599 0.000 -4131.958 -2760.836 -6761.838 10182.378 1686.271 0.000 -6671.377 2136.900 3737.437 8119.351 292.217 3719.709 2916.360 7546.227 -3176.983 -1155.241 -6562.637 3272.298 3185.167 0.000 0.000
-1251.329 240.192 -3070.395 -6499.339 -11214.223 1885.490 9309.772 -9685.720 92.244 5897.030 75.197 -1380.133 0.000 -4130.394 -2762.197 -6764.339 10180.410 1688.184 0.000 -6671.580 2134.619 3735.818 8121.980 297.256 3720.168 2915.735 7548.250 -3174.132 -1152.005 -6554.729 3277.742 3190.628 0.000 0.000
-1251.495 240.762 -3070.302 -6499.725 -11214.425 1885.784 9308.981 -9685.774 91.509 5898.354 76.999 -1380.298 0.000 -4127.819 -2762.068 -6763.806 10181.826 1686.234 0.000 -6670.954 2133.865 3735.873 8122.403 296.759 3719.856 2915.827 7547.808 -3176.468 -1152.667 -6554.840 3277.907 3189.985 0.000 0.000
-1248.975 244.679 -3068.004 -6499.100 -11211.115 1892.074 9313.432 -9686.565 92.502 5901.407 82.534 -1379.820 0.000 -4130.946 -2760.597 -6757.958 10180.612 1683.678 0.000 -6670.126 2137.782 3738.025 8119.222 292.033 3718.403 2916.912 7544.773 -3186.362 -1152.777 -6559.547 3270.809 3183.401 0.000 0.000
-1240.461 253.984 -3064.160 -6497.941 -11205.763 1900.533 9319.298 -9689.231 92.575 5909.001 91.472 -1380.059 0.000 -4133.355 -2759.070 -6749.277 10182.893 1680.423 0.000 -6672.370 2141.626 3741.078 8113.540 281.238 3717.447 2918.438 7542.695 -3198.205 -1155.775 -6571.152 3260.805 3170.234 0.000 0.000
-1231.468 261.120 -3061.843 -6496.819 -11199.399 1912.983 9324.650 -9689.544 93.697 5915.346 101.016 -1380.261 0.000 -4138.688 -2756.091 -6740.377 10186.020 1678.198 0.000 -6674.209 2147.823 3746.209 8108.556 268.200 3715.534 2921.399 7537.804 -3214.370 -1159.306 -6580.292 3248.612 3156.037 0.000 0.000
-1226.613 267.703 -3057.853 -6496.709 -11194.839 1920.688 9327.832 -9690.354 93.844 5923.162 106.883 -1380.298 0.000 -4141.465 -2753.682 -6735.926 10187.914 1678.327 0.000 -6676.747 2153.322 3747.772 8104.877 260.789 3714.063 2921.399 7534.770 -3225.772 -1161.476 -6589.045 3239.822 3147.908 0.000 0.000
-1228.912 266.729 -3057.338 -6496.617 -11195.594 1919.456 9326.802 -9689.967 93.476 5921.691 112.087 -1382.156 0.000 -4142.366 -2753.866 -6734.639 10188.097 1684.616 0.000 -6676.379 2154.517 3748.029 8103.958 261.561 3712.095 2921.638 7535.928 -3229.395 -1161.531 -6588.438 3239.527 3147.136 0.000 0.000
-1234.447 259.998 -3061.365 -6497.095 -11199.069 1912.303 9331.528 -9689.084 93.366 5914.647 112.933 -1381.990 0.000 -4140.472 -2758.445 -6735.834 10184.548 1693.517 0.000 -6676.563 2153.653 3745.878 8105.540 268.145 3713.493 2921.288 7536.424 -3228.291 -1160.207 -6581.910 3244.585 3153.094 0.000 0.000
-1242.576 251.281 -3067.526 -6499.891 -11206.903 1901.232 9333.568 -9688.515 91.343 5907.328 111.922 -1381.181 0.000 -4138.063 -2761.075 -6740.229 10181.201 1706.610 0.000 -6673.032 2148.853 3741.078 8107.931 279.197 3712.959 2918.254 7539.625 -3221.156 -1156.970 -6571.888 3254.313 3162.841 0.000 0.000
-1253.113 240.081 -3072.381 -6499.982 -11215.031 1886.796 9327.041 -9689.452 89.136 5896.974 108.795 -1381.346 0.000 -4134.312 -2766.132 -6747.199 10177.247 1740.411 0.000 -6670.770 2141.792 3734.034 8112.933 291.794 3713.125 2914.337 7543.026 -3213.855 -1154.487 -6560.560 3266.561 3175.015 0.000 0.000
-1261.517 233.020 -3077.511 -6501.968 -11220.695 1879.348 9322.057 -9690.997 86.488 5889.747 106.552 -1383.075 0.000 -4132.785 -2771.097 -6751.116 10173.366 1772.833 0.000 -6669.336 2138.904 3730.356 8114.735 300.989 3711.764 2913.693 7544.277 -3210.398 -1152.593 -6551.971 3273.181 3184.100 0.000 0.000
-1262.805 230.537 -3077.438 -6503.219 -11220.438 1878.722 9320.034 -9690.556 85.642 5888.276 110.561 -1383.498 0.000 -4131.167 -2771.116 -6747.163 10172.687 1769.173 0.000 -6669.814 2139.861 3731.313 8113.613 304.630 3712.868 2914.374 7543.928 -3212.990 -1152.740 -6550.647 3274.597 3183.199 0.000 0.000
-1258.685 234.583 -3074.146 -6502.465 -11217.331 1882.805 9316.228 -9690.464 85.845 5892.138 117.678 -1381.917 0.000 -4133.079 -2770.031 -6741.554 10173.974 1765.642 0.000 -6671.304 2142.582 3733.483 8111.535 300.014 3711.580 2914.116 7543.339 -3224.098 -1154.101 -6554.785 3271.508 3177.093 0.000 0.000
-1251.274 242.472 -3071.351 -6501.270 -11210.544 1892.570 9316.778 -9690.924 88.015 5900.174 127.939 -1382.560 0.000 -4136.941 -2767.309 -6729.784 10177.340 1756.429 0.000 -6673.768 2147.088 3736.076 8108.740 291.114 3710.624 2915.955 7540.213 -3240.024 -1156.878 -6564.660 3260.326 3165.949 0.000 0.000
-1240.865 253.433 -3066.367 -6497.978 -11202.986 1904.708 9318.489 -9690.592 89.596 5909.995 140.095 -1382.836 0.000 -4139.994 -2762.307 -6714.374 10180.962 1731.051 0.000 -6676.379 2152.697 3742.862 8103.002 279.326 3711.452 2918.511 7535.045 -3260.087 -1160.740 -6576.191 3247.361 3153.205 0.000 0.000
-1234.098 260.881 -3061.696 -6497.169 -11198.370 1914.381 9322.204 -9690.795 90.037 5918.233 149.860 -1383.149 0.000 -4142.973 -2759.272 -6703.008 10181.974 1716.118 0.000 -6678.016 2157.000 3747.956 8099.692 270.168 3709.741 2921.822 7532.047 -3276.344 -1162.119 -6585.128 3237.376 3142.778 0.000 0.000
-1232.112 262.149 -3060.519 -6496.341 -11197.892 1917.562 9322.204 -9690.813 90.350 5919.465 154.586 -1381.163 0.000 -4142.973 -2759.511 -6698.319 10183.040 1712.790 0.000 -6680.572 2159.078 3749.243 8098.699 268.807 3711.157 2920.369 7532.765 -3286.201 -1164.308 -6587.464 3235.426 3140.718 0.000 0.000
-1237.408 257.607 -3063.498 -6495.624 -11199.290 1912.395 9319.501 -9689.452 90.424 5915.180 156.995 -1380.298 0.000 -4140.601 -2759.861 -6699.919 10179.583 1703.944 0.000 -6677.373 2157.257 3748.140 8099.600 275.317 3712.463 2920.737 7534.880 -3285.263 -1162.947 -6579.961 3241.697 3146.290 0.000 0.000
-1245.683 248.835 -3066.808 -6496.028 -11204.182 1902.758 9315.179 -9689.416 90.295 5908.781 155.598 -1378.662 0.000 -4135.323 -2762.877 -6702.254 10178.755 1687.981 0.000 -6674.154 2152.991 3746.246 8103.498 289.036 3714.394 2918.640 7540.783 -3282.247 -1158.827 -6569.257 3253.890 3158.262 0.000 0.000
-1253.977 238.757 -3072.583 -6495.440 -11211.004 1889.904 9307.032 -9688.938 88.493 5901.664 152.729 -1378.864 0.000 -4130.100 -2767.051 -6707.716 10176.621 1679.798 0.000 -6671.451 2148.485 3742.843 8109.715 304.630 3715.755 2917.334 7544.865 -3273.659 -1153.862 -6554.270 3268.198 3172.312 0.000 0.000
-1261.315 230.905 -3077.180 -6498.585 -11216.908 1880.010 9303.722 -9688.772 86.948 5892.524 149.860 -1379.618 0.000 -4127.010 -2771.134 -6709.849 10172.760 1697.526 0.000 -6670.697 2141.258 3739.331 8111.940 315.738 3717.594 2915.808 7548.654 -3270.202 -1150.846 -6544.100 3278.735 3183.144 0.000 0.000
-1263.926 228.293 -3077.990 -6499.284 -11217.809 1876.534 9303.961 -9689.894 85.403 5889.416 151.497 -1378.404 0.000 -4124.822 -2771.814 -6709.463 10172.595 1700.818 0.000 -6670.587 2139.180 3738.190 8112.455 319.876 3717.557 2916.948 7548.562 -3275.112 -1150.901 -6540.256 3281.291 3188.146 0.000 0.000
-1261.205 231.254 -3076.850 -6498.328 -11216.282 1882.235 9303.170 -9689.195 87.831 5892.395 155.506 -1378.533 0.000 -4126.698 -2768.982 -6701.997 10174.010 1695.227 0.000 -6671.010 2140.026 3740.066 8111.572 315.315 3717.520 2918.328 7548.065 -3288.776 -1151.711 -6542.703 3276.694 3183.585 0.000 0.000
-1254.566 237.875 -3072.785 -6498.125 -11209.827 1890.658 9306.278 -9689.654 88.529 5899.898 163.745 -1377.705 0.000 -4128.684 -2767.254 -6689.436 10174.249 1695.540 0.000 -6672.333 2142.692 3743.597 8106.717 305.513 3716.123 2918.677 7543.707 -3307.625 -1154.543 -6551.033 3266.855 3173.047 0.000 0.000
-1245.352 248.467 -3067.526 -6494.429 -11200.743 1903.843 9308.927 -9689.931 88.493 5908.284 172.774 -1375.204 0.000 -4132.068 -2764.661 -6671.028 10178.368 1692.836 0.000 -6676.508 2146.720 3749.960 8101.494 291.095 3715.902 2920.185 7537.822 -3332.617 -1161.292 -6565.745 3252.860 3159.273 0.000 0.000
-1237.316 257.497 -3062.854 -6491.063 -11194.232 1915.631 9311.446 -9689.544 90.773 5915.695 180.369 -1374.322 0.000 -4135.580 -2760.946 -6655.488 10181.623 1686.823 0.000 -6679.285 2150.122 3753.804 8098.681 280.907 3714.780 2921.086 7535.579 -3359.853 -1164.951 -6576.577 3240.263 3147.081 0.000 0.000
-1233.601 259.520 -3060.537 -6490.475 -11191.879 1920.321 9311.961 -9688.735 91.950 5920.643 185.151 -1372.335 0.000 -4135.378 -2759.732 -6643.278 10182.193 1675.458 0.000 -6679.855 2152.586 3755.753 8095.830 275.979 3714.192 2921.822 7535.450 -3377.011 -1164.731 -6578.710 3235.426 3142.354 0.000 0.000
-1236.470 256.853 -3062.450 -6490.328 -11194.932 1917.433 9310.673 -9688.827 91.435 5917.387 184.176 -1368.363 0.000 -4132.896 -2760.873 -6636.216 10180.355 1665.674 0.000 -6680.094 2150.821 3755.625 8095.407 279.528 3715.792 2921.932 7537.767 -3374.510 -1164.105 -6574.168 3236.806 3146.989 0.000 0.000
-1244.635 249.074 -3066.330 -6491.928 -11198.480 1907.337 9306.463 -9689.691 90.111 5910.491 181.068 -1371.250 0.000 -4129.695 -2763.760 -6634.156 10177.320 1659.109 0.000 -6678.771 2147.952 3752.737 8099.011 290.323 3716.821 2921.251 7539.367 -3359.669 -1161.862 -6563.483 3247.527 3158.078 0.000 0.000
-1254.823 237.544 -3072.031 -6494.189 -11207.528 1894.299 9299.769 -9690.133 86.470 5901.590 175.330 -1372.244 0.000 -4124.031 -2769.001 -6639.195 10173.845 1664.479 0.000 -6676.747 2143.612 3750.291 8103.646 303.049 3718.716 2919.449 7544.608 -3344.221 -1158.221 -6548.716 3261.136 3173.415 0.000 0.000
-1263.301 227.889 -3077.419 -6496.489 -11213.708 1883.890 9295.465 -9691.935 83.730 5892.542 168.379 -1372.795 0.000 -4118.919 -2773.323 -6642.468 10170.021 1670.088 0.000 -6673.216 2138.757 3746.815 8106.717 314.377 3721.456 2917.923 7547.661 -3332.397 -1154.469 -6533.857 3271.912 3186.987 0.000 0.000
-1266.961 224.542 -3078.744 -6497.959 -11217.643 1878.833 9292.191 -9692.965 82.203 5888.956 166.669 -1371.103 0.000 -4117.116 -2774.003 -6643.167 10169.688 1673.453 0.000 -6672.499 2138.021 3744.627 8107.875 318.883 3721.290 2918.272 7548.783 -3330.595 -1152.299 -6528.156 3275.590 3193.387 0.000 0.000
-1266.225 224.248 -3080.380 -6497.297 -11216.742 1881.132 9293.111 -9693.811 82.479 5889.508 169.666 -1370.570 0.000 -4118.165 -2774.665 -6636.786 10169.652 1677.058 0.000 -6674.724 2139.474 3746.521 8104.583 315.205 3720.849 2919.486 7547.790 -3333.464 -1153.991 -6530.546 3273.806 3192.854 0.000 0.000
-1259.733 229.875 -3076.445 -6496.231 -11211.078 1887.531 9297.249 -9691.604 83.380 5894.216 175.367 -1370.037 0.000 -4119.103 -2772.955 -6629.632 10171.289 1671.007 0.000 -6677.354 2142.417 3751.505 8102.138 306.046 3721.566 2919.909 7543.688 -3345.822 -1156.198 -6537.112 3263.545 3183.015 0.000 0.000
-1250.630 240.339 -3071.608 -6495.072 -11202.692 1901.857 9303.906 -9693.314 84.318 5902.730 184.378 -1368.382 0.000 -4124.160 -2769.056 -6620.309 10173.680 1667.495 0.000 -6679.708 2144.348 3756.268 8096.014 291.831 3719.782 2920.829 7540.121 -3363.862 -1160.335 -6548.771 3248.244 3172.091 0.000 0.000
-1241.840 250.619 -3066.018 -6492.590 -11196.513 1913.921 9309.681 -9692.082 85.642 5912.551 192.102 -1368.878 0.000 -4127.047 -2766.040 -6612.400 10178.147 1667.274 0.000 -6683.294 2149.423 3761.178 8089.412 277.376 3718.605 2922.870 7535.119 -3381.645 -1166.055 -6562.784 3232.778 3160.708 0.000 0.000
-1238.438 254.444 -3063.333 -6492.442 -11193.368 1920.339 9314.131 -9692.211 86.359 5915.990 194.971 -1369.485 0.000 -4129.714 -2765.378 -6608.483 10179.564 1672.607 0.000 -6685.924 2150.582 3764.010 8087.168 269.082 3717.778 2922.907 7532.397 -3389.112 -1169.494 -6567.768 3224.613 3158.593 0.000 0.000
-1238.861 252.256 -3064.436 -6493.399 -11194.490 1917.489 9314.480 -9692.396 85.605 5914.941 194.235 -1370.662 0.000 -4128.188 -2767.198 -6612.346 10177.504 1681.582 0.000 -6687.689 2147.878 3763.458 8085.844 270.094 3717.263 2922.723 7534.751 -3387.346 -1170.082 -6564.660 3227.280 3164.790 0.000 0.000
-1247.633 244.274 -3069.457 -6494.594 -11199.822 1908.992 9308.080 -9693.498 83.987 5908.836 188.939 -1370.846 0.000 -4123.038 -2770.435 -6621.338 10174.249 1696.422 0.000 -6686.972 2144.697 3762.281 8089.173 278.645 3720.279 2920.700 7536.774 -3380.781 -1167.544 -6553.957 3234.396 3179.466 0.000 0.000
-1257.619 234.454 -3076.279 -6496.856 -11208.099 1897.204 9304.182 -9694.639 82.130 5899.107 182.116 -1374.266 0.000 -4118.643 -2775.419 -6632.041 10170.976 1705.893 0.000 -6683.644 2138.555 3759.266 8092.170 291.132 3721.217 2920.719 7542.420 -3364.598 -1162.597 -6538.693 3247.141 3194.858 0.000 0.000
-1266.924 223.475 -3081.906 -6499.872 -11214.186 1884.791 9298.978 -9695.006 77.937 5888.313 173.583 -1376.491 0.000 -4114.229 -2778.306 -6643.682 10169.340 1722.610 0.000 -6680.664 2135.888 3757.316 8095.333 302.975 3723.552 2918.806 7546.098 -3350.088 -1158.993 -6522.805 3262.184 3202.490 0.000 0.000
-1272.606 218.308 -3084.720 -6502.300 -11217.680 1876.865 9296.733 -9695.760 77.753 5883.899 171.671 -1379.599 0.000 -4110.037 -2781.524 -6651.755 10168.089 1737.929 0.000 -6679.395 2134.803 3757.390 8098.496 309.559 3725.980 2919.817 7549.077 -3341.169 -1153.991 -6511.734 3270.165 3185.976 0.000 0.000
-1270.087 220.570 -3081.870 -6499.192 -11214.646 1879.697 9300.081 -9692.965 79.721 5886.474 174.558 -1377.577 0.000 -4107.352 -2778.931 -6655.065 10169.743 1741.809 0.000 -6678.310 2135.943 3762.355 8100.593 307.757 3729.088 2922.061 7550.842 -3340.783 -1152.042 -6510.924 3270.791 3127.790 0.000 0.000
-1260.984 230.372 -3075.323 -6493.344 -11205.598 1892.092 9307.859 -9689.728 84.649 5895.540 182.539 -1373.604 0.000 -4105.549 -2773.562 -6650.670 10174.875 1752.107 0.000 -6678.016 2142.435 3759.983 8101.531 300.971 3730.688 2925.996 7550.584 -3344.976 -1153.752 -6513.260 3264.501 3021.698 0.000 0.000
-1247.283 245.084 -3064.988 -6488.158 -11194.416 1907.393 9317.184 -9684.910 91.674 5909.700 193.205 -1368.768 0.000 -4105.788 -2765.819 -6644.013 10183.886 1768.070 0.000 -6676.122 2151.961 3762.631 8101.494 288.778 3733.097 2931.495 7550.088 -3352.810 -1153.531 -6520.763 3254.570 2877.171 0.000 0.000
-1231.744 259.538 -3054.432 -6481.280 -11181.746 1927.162 9326.747 -9679.448 97.908 5922.555 206.998 -1364.538 0.000 -4105.402 -2758.371 -6633.034 10189.568 1777.265 0.000 -6673.382 2160.071 3774.566 8101.200 274.655 3735.230 2938.244 7548.764 -3363.844 -1153.881 -6528.634 3242.451 2727.219 0.000 0.000
-1222.953 270.204 -3045.623 -6475.523 -11173.470 1939.980 9334.893 -9674.740 102.469 5932.173 217.462 -1359.609 0.000 -4104.629 -2752.045 -6626.432 10195.104 1784.088 0.000 -6672.499 2168.292 3781.977 8102.965 265.570 3739.735 2942.750 7549.720 -3369.931 -1153.862 -6530.363 3236.217 2598.581 0.000 0.000
-1219.073 273.993 -3041.559 -6469.933 -11168.468 1942.756 9340.355 -9671.448 107.140 5936.660 220.128 -1356.686 0.000 -4100.345 -2748.422 -6625.586 10201.007 1782.672 0.000 -6668.582 2173.128 3786.244 8108.262 264.706 3743.726 2946.906 7553.380 -3370.372 -1150.644 -6522.878 3240.153 2493.151 0.000 0.000
-1221.868 270.388 -3041.908 -6468.536 -11168.026 1939.373 9339.178 -9668.451 109.531 5935.133 218.363 -1354.276 0.000 -4092.713 -2747.062 -6629.889 10200.988 1786.368 0.000 -6664.297 2174.434 3789.131 8112.105 270.554 3749.960 2948.524 7560.387 -3358.492 -1144.355 -6508.166 3250.763 2412.989 0.000 0.000
-1228.912 262.241 -3045.237 -6467.947 -11172.734 1929.295 9336.603 -9666.354 112.804 5928.568 214.832 -1352.842 0.000 -4085.743 -2746.749 -6636.730 10200.290 1794.294 0.000 -6657.622 2175.427 3787.605 8118.468 279.215 3754.006 2951.668 7567.467 -3339.477 -1138.028 -6486.502 3267.112 2345.498 0.000 0.000
-1236.617 253.138 -3048.235 -6466.752 -11177.719 1918.132 9334.599 -9663.246 111.664 5922.628 208.101 -1350.212 0.000 -4077.744 -2746.418 -6644.675 10202.551 1801.411 0.000 -6653.447 2173.220 3785.214 8126.762 285.946 3760.424 2953.508 7577.471 -3322.540 -1129.330 -6462.779 3286.109 2279.018 0.000 0.000
-1240.902 248.872 -3050.202 -6463.864 -11178.251 1913.847 9333.882 -9662.658 114.882 5919.098 205.674 -1348.410 0.000 -4070.903 -2746.032 -6647.893 10203.729 1800.933 0.000 -6647.654 2174.084 3785.288 8133.401 285.670 3765.868 2956.579 7584.073 -3310.439 -1122.139 -6444.316 3297.934 2210.073 0.000 0.000
-1238.401 250.987 -3048.014 -6463.625 -11176.468 1914.509 9336.640 -9660.433 117.365 5920.054 206.556 -1346.313 0.000 -4067.831 -2744.671 -6645.264 10205.549 1801.999 0.000 -6644.620 2176.751 3790.381 8135.957 277.303 3769.527 2959.172 7586.979 -3307.901 -1120.631 -6431.884 3301.704 2144.752 0.000 0.000
-1231.063 259.354 -3041.945 -6460.131 -11169.167 1921.939 9341.274 -9657.582 119.443 5928.771 212.349 -1343.261 0.000 -4066.857 -2740.827 -6637.393 10208.712 1801.926 0.000 -6642.744 2182.360 3793.673 8136.803 255.143 3770.152 2962.280 7586.207 -3310.071 -1122.801 -6425.282 3296.922 2072.130 0.000 0.000
-1219.643 271.363 -3034.074 -6453.989 -11159.843 1938.527 9349.422 -9653.867 123.084 5939.492 221.048 -1340.006 0.000 -4067.997 -2734.152 -6625.972 10214.046 1798.009 0.000 -6643.222 2188.465 3796.524 8133.897 222.942 3771.605 2965.608 7583.907 -3319.101 -1125.174 -6422.303 3285.944 1995.646 0.000 0.000
-1207.653 285.615 -3025.082 -6449.612 -11148.864 1953.790 9358.983 -9651.256 128.896 5952.255 231.567 -1336.070 0.000 -4070.645 -2728.874 -6613.872 10219.471 1801.190 0.000 -6646.220 2196.079 3801.985 8130.513 186.750 3770.520 2969.396 7580.616 -3333.923 -1128.061 -6421.678 3272.427 1921.994 0.000 0.000
-1198.421 294.755 -3018.572 -6446.321 -11140.534 1965.910 9365.530 -9648.884 131.452 5960.420 238.739 -1333.385 0.000 -4072.135 -2723.688 -6603.279 10223.884 1808.307 0.000 -6647.176 2201.669 3807.687 8127.148 152.968 3771.808 2971.750 7577.875 -3344.902 -1132.419 -6411.729 3262.515 1859.413 0.000 0.000
-1195.957 296.815 -3016.402 -6444.849 -11134.667 1968.668 9367.995 -9646.824 133.236 5962.112 241.700 -1332.153 0.000 -4070.204 -2721.757 -6601.477 10225.687 1818.238 0.000 -6646.054 2204.814 3808.496 8129.373 125.346 3772.690 2972.854 7577.490 -3344.203 -1131.316 -6390.065 3262.533 1808.289 0.000 0.000
-1199.083 293.339 -3017.726 -6444.150 -11137.609 1963.408 9366.248 -9646.585 132.684 5960.733 236.679 -1331.271 0.000 -4066.930 -2721.646 -6604.824 10225.778 1828.518 0.000 -6643.333 2204.556 3808.643 8132.609 109.329 3775.007 2974.012 7581.480 -3334.696 -1128.944 -6356.246 3271.820 1768.235 0.000 0.000
-1209.032 283.684 -3023.390 -6445.015 -11145.518 1949.873 9359.812 -9648.461 130.955 5952.016 229.213 -1332.631 0.000 -4063.841 -2724.644 -6609.771 10221.475 1840.563 0.000 -6641.438 2202.129 3805.921 8139.175 115.452 3778.189 2973.571 7587.880 -3315.349 -1125.284 -6313.949 3289.383 1739.473 0.000 0.000
-1221.666 269.689 -3031.040 -6448.104 -11152.635 1936.449 9354.735 -9650.852 129.171 5940.908 219.779 -1335.206 0.000 -4057.735 -2728.432 -6619.315 10218.698 1852.130 0.000 -6638.698 2196.354 3799.650 8144.876 116.832 3781.701 2972.891 7593.084 -3292.031 -1119.271 -6263.653 3307.111 1724.688 0.000 0.000
-1227.845 262.793 -3035.637 -6450.863 -11157.103 1926.610 9351.315 -9651.201 128.987 5933.625 213.398 -1335.298 0.000 -4051.023 -2730.271 -6625.586 10218.274 1861.896 0.000 -6634.413 2194.497 3797.517 8150.890 71.004 3784.570 2972.891 7599.171 -3270.496 -1114.489 -6216.721 3319.689 1713.948 0.000 0.000
-1228.434 260.899 -3034.442 -6450.532 -11157.710 1924.182 9351.738 -9649.233 129.907 5931.180 213.195 -1332.962 0.000 -4050.398 -2730.474 -6623.986 10219.250 1868.240 0.000 -6632.832 2195.729 3800.643 8155.248 2.354 3786.906 2975.300 7603.070 -3258.653 -1113.423 -6176.558 3321.197 1700.707 0.000 0.000
-1224.388 265.901 -3030.837 -6447.920 -11153.608 1929.608 9355.288 -9648.148 132.739 5937.653 216.138 -1331.381 0.000 -4049.736 -2728.064 -6621.117 10222.873 1870.429 0.000 -6634.229 2198.801 3807.245 8154.347 -70.213 3788.322 2976.127 7601.911 -3252.952 -1114.195 -6145.203 3308.471 1686.565 0.000 0.000
-1214.733 276.181 -3023.776 -6444.500 -11145.039 1942.756 9362.864 -9644.783 135.792 5944.715 222.979 -1329.781 0.000 -4053.965 -2724.240 -6612.438 10224.858 1870.410 0.000 -6636.290 2202.405 3814.307 8152.913 -140.113 3788.046 2979.015 7598.104 -3257.347 -1117.579 -6121.498 3281.861 1669.407 0.000 0.000
-1202.375 291.353 -3015.372 -6439.277 -11133.784 1957.873 9370.919 -9643.055 140.021 5958.269 233.939 -1329.946 0.000 -4057.092 -2718.336 -6602.121 10229.751 1868.295 0.000 -6639.709 2207.297 3819.952 8148.959 -203.632 3787.844 2982.821 7592.863 -3273.659 -1123.280 -6109.967 3242.985 1658.944 0.000 0.000
-1191.304 302.607 -3006.692 -6434.330 -11125.215 1971.647 9378.771 -9640.332 144.784 5969.229 242.251 -1325.698 0.000 -4059.685 -2712.157 -6594.838 10234.605 1868.387 0.000 -6641.494 2213.954 3828.357 8144.508 -250.876 3787.825 2984.715 7588.818 -3296.665 -1126.498 -6103.880 3200.430 1649.289 0.000 0.000
-1185.879 311.269 -3001.064 -6431.093 -11118.319 1979.555 9384.417 -9635.900 148.867 5974.415 248.044 -1322.259 0.000 -4056.926 -2706.916 -6592.833 10237.383 1872.691 0.000 -6639.949 2217.871 3837.147 8145.097 -285.633 3791.099 2988.191 7590.234 -3328.609 -1125.836 -6098.492 3157.563 1645.979 0.000 0.000
-1183.967 313.844 -2998.067 -6425.724 -11114.990 1978.930 9388.923 -9631.321 153.575 5976.585 249.166 -1316.724 0.000 -4049.294 -2702.337 -6592.668 10241.998 1881.352 0.000 -6635.811 2221.255 3842.204 8153.004 -306.028 3797.848 2993.671 7597.737 -3379.365 -1118.976 -6097.076 3114.457 1648.185 0.000 0.000
-1186.173 313.513 -2996.062 -6420.593 -11114.255 1976.337 9393.594 -9624.608 159.313 5975.353 250.766 -1309.000 0.000 -4039.033 -2697.942 -6594.544 10248.729 1894.630 0.000 -6625.660 2225.687 3848.199 8165.345 -308.786 3807.337 3000.770 7609.984 -3468.759 -1107.814 -6094.869 3068.794 1650.172 0.000 0.000
-1187.755 311.085 -2993.543 -6413.862 -11113.059 1971.371 9395.636 -9616.702 166.319 5974.378 250.582 -1300.761 0.000 -4024.302 -2692.131 -6597.394 10254.926 1913.333 0.000 -6611.646 2230.560 3856.972 8181.767 -300.897 3820.688 3010.498 7626.830 -3602.987 -1092.292 -6088.947 3020.999 1650.650 0.000 0.000
-1184.831 312.667 -2989.957 -6406.947 -11108.590 1970.029 9403.469 -9606.587 174.650 5975.941 252.973 -1291.107 0.000 -4009.903 -2684.811 -6597.008 10264.121 1931.888 0.000 -6598.884 2238.008 3867.178 8198.464 -288.116 3834.444 3019.417 7642.277 -3792.643 -1076.643 -6086.814 2972.155 1665.233 0.000 0.000
-1177.199 323.977 -2979.585 -6394.718 -11099.892 1976.649 9420.131 -9595.369 186.732 5984.860 261.175 -1279.429 0.000 -3994.216 -2673.428 -6587.942 10274.475 1946.729 0.000 -6586.066 2248.288 3881.394 8212.661 -277.211 3848.310 3032.603 7656.015 -4033.350 -1061.195 -6086.961 2924.359 1648.719 0.000 0.000
-1162.984 341.190 -2965.406 -6380.925 -11084.003 1992.042 9430.631 -9582.221 201.076 6001.779 274.875 -1266.060 0.000 -3981.637 -2660.003 -6573.396 10288.378 1963.335 0.000 -6573.304 2261.143 3895.922 8225.442 -269.689 3862.195 3046.396 7667.306 -4299.178 -1049.407 -6092.479 2882.908 1606.385 0.000 0.000
-1142.424 364.582 -2947.421 -6365.791 -11065.558 2015.195 9445.858 -9568.796 214.832 6020.703 295.123 -1251.440 0.000 -3971.118 -2643.857 -6554.509 10303.623 1976.796 0.000 -6564.311 2277.914 3914.330 8234.215 -267.133 3873.283 3059.857 7676.685 -4601.270 -1041.665 -6090.566 2842.873 1560.042 0.000 0.000
-1118.480 389.243 -2925.481 -6349.148 -11043.177 2042.504 9467.448 -9553.200 230.408 6042.642 316.749 -1237.610 0.000 -3963.634 -2626.294 -6531.853 10319.843 1991.012 0.000 -6554.693 2294.153 3931.911 8239.640 -263.988 3883.269 3075.102 7682.993 -4925.890 -1034.805 -6076.148 2788.071 1509.709 0.000 0.000
-1096.504 414.327 -2908.048 -6336.458 -11025.376 2066.503 9493.359 -9539.482 245.084 6065.427 336.206 -1225.252 0.000 -3957.730 -2610.645 -6514.106 10333.893 2003.793 0.000 -6547.282 2309.085 3948.554 8245.506 -258.343 3891.913 3087.405 7688.381 -5228.406 -1028.406 -6037.584 2724.166 1460.368 0.000 0.000
-1084.514 429.554 -2896.167 -6326.675 -11012.632 2080.994 9520.153 -9531.316 256.449 6078.134 347.939 -1216.076 0.000 -3951.625 -2600.916 -6503.697 10342.867 2016.923 0.000 -6540.256 2318.354 3963.192 8252.108 -249.129 3899.121 3096.839 7694.174 -5478.933 -1023.293 -5965.606 2660.886 1423.147 0.000 0.000
-1076.900 436.266 -2890.540 -6318.970 -11005.735 2085.536 9515.391 -9523.263 264.614 6084.479 353.768 -1207.708 0.000 -3941.216 -2593.137 -6499.394 10350.187 2031.580 0.000 -6532.900 2325.048 3970.474 8261.248 -229.397 3907.029 3104.821 7703.167 -5685.839 -1014.687 -5871.835 2603.932 1394.238 0.000 0.000
-1079.144 435.567 -2888.867 -6314.538 -11005.165 2082.318 9516.292 -9518.700 269.248 6084.700 352.169 -1202.062 0.000 -3930.311 -2590.029 -6501.344 10355.079 2045.943 0.000 -6522.841 2328.523 3975.054 8271.712 -203.596 3915.691 3112.030 7715.451 -5842.099 -1002.660 -5774.792 2551.355 1365.035 0.000 0.000
-1085.396 426.317 -2891.276 -6312.202 -11009.818 2073.841 9518.866 -9516.457 271.510 6077.822 348.343 -1197.226 0.000 -3920.141 -2588.963 -6508.221 10357.911 2061.059 0.000 -6514.419 2329.572 3976.856 8283.610 -176.820 3922.845 3115.910 7727.772 -5954.001 -991.754 -5676.865 2510.088 1341.771 0.000 0.000
-1093.267 417.931 -2894.237 -6311.871 -11015.261 2062.163 9514.343 -9515.354 269.597 6071.440 342.275 -1194.798 0.000 -3912.031 -2588.944 -6518.262 10357.800 2077.445 0.000 -6509.085 2328.321 3977.297 8291.794 -151.037 3926.652 3118.392 7737.648 -6042.421 -982.155 -5562.350 2469.722 1328.659 0.000 0.000
-1097.552 410.373 -2897.768 -6312.478 -11015.996 2056.646 9511.290 -9514.508 271.455 6066.880 337.530 -1193.493 0.000 -3909.383 -2590.434 -6526.924 10357.120 2088.644 0.000 -6506.291 2326.096 3981.784 8297.862 -129.429 3928.822 3120.195 7741.197 -6115.779 -977.943 -5456.791 2431.030 1318.011 0.000 0.000
-1095.639 408.938 -2896.940 -6312.809 -11016.493 2057.179 9511.584 -9514.122 271.951 6068.112 335.949 -1191.580 0.000 -3909.824 -2590.342 -6536.726 10359.528 2098.943 0.000 -6505.113 2326.188 3983.991 8297.402 -115.765 3927.460 3121.611 7741.988 -6184.539 -978.072 -5373.043 2409.348 1301.332 0.000 0.000
-1092.734 411.771 -2894.899 -6311.522 -11013.826 2062.825 9513.202 -9515.225 272.705 6071.625 338.909 -1193.143 0.000 -3913.778 -2590.029 -6544.413 10358.425 2105.471 0.000 -6510.152 2327.420 3986.143 8293.522 -109.384 3924.242 3119.514 7736.250 -6276.194 -983.755 -5263.163 2409.053 1281.562 0.000 0.000
-1082.785 422.161 -2887.432 -6307.586 -11005.201 2077.132 9519.823 -9512.063 274.618 6080.029 345.658 -1192.077 0.000 -3919.976 -2585.505 -6547.741 10362.692 2113.747 0.000 -6512.800 2330.399 3991.862 8287.381 -101.237 3921.189 3121.482 7731.781 -6386.553 -989.051 -5217.593 2407.968 1259.917 0.000 0.000
-1072.137 434.041 -2878.274 -6305.269 -10995.363 2091.458 9526.240 -9509.470 277.855 6092.736 353.162 -1190.035 0.000 -3923.967 -2580.338 -6547.429 10365.174 2123.181 0.000 -6514.309 2334.960 4000.303 8282.250 -93.844 3918.284 3122.917 7726.375 -6472.305 -994.274 -5200.472 2401.660 1227.202 0.000 0.000
-1066.271 439.760 -2874.946 -6304.460 -10991.299 2100.028 9528.099 -9508.642 278.848 6098.988 356.012 -1188.656 0.000 -3927.626 -2578.904 -6548.385 10368.099 2135.539 0.000 -6517.196 2337.627 4005.213 8278.497 -76.833 3915.489 3121.813 7721.446 -6514.915 -998.595 -5185.447 2404.161 1192.886 0.000 0.000
-1069.820 437.277 -2877.171 -6305.895 -10993.892 2095.798 9523.906 -9511.400 276.825 6096.653 352.610 -1191.856 0.000 -3928.913 -2581.993 -6550.702 10364.347 2148.412 0.000 -6519.126 2334.482 4005.453 8277.615 -47.630 3913.760 3122.273 7720.178 -6512.139 -999.239 -5161.337 2414.865 1167.048 0.000 0.000
-1079.070 428.138 -2884.563 -6310.455 -11001.928 2084.672 9517.212 -9515.593 271.216 6085.601 341.925 -1194.412 0.000 -3931.230 -2587.915 -6555.575 10358.812 2163.510 0.000 -6520.524 2328.303 3999.770 8277.763 -9.820 3911.222 3117.620 7721.557 -6470.650 -1000.048 -5130.442 2434.284 1150.901 0.000 0.000
-1093.543 413.315 -2896.204 -6318.142 -11012.705 2068.213 9506.766 -9521.957 264.779 6071.238 328.924 -1199.065 0.000 -3930.752 -2594.682 -6564.219 10351.363 2180.429 0.000 -6519.715 2320.910 3996.956 8278.995 32.348 3908.335 3113.960 7721.833 -6406.966 -997.382 -5102.508 2460.325 1139.150 0.000 0.000
-1107.814 398.530 -2906.871 -6323.972 -11026.957 2051.018 9494.188 -9527.031 259.152 6057.722 313.733 -1203.405 0.000 -3928.656 -2603.104 -6575.345 10346.546 2197.035 0.000 -6519.035 2314.216 3993.426 8281.809 76.833 3905.944 3108.554 7725.161 -6338.279 -995.396 -5087.336 2491.091 1128.466 0.000 0.000
-1120.006 388.103 -2915.330 -6329.691 -11034.313 2036.766 9487.310 -9532.807 254.223 6046.283 302.276 -1209.326 0.000 -3930.237 -2609.468 -6583.399 10339.465 2214.892 0.000 -6521.370 2306.069 3987.467 8281.845 114.551 3902.579 3104.692 7726.559 -6271.818 -994.844 -5071.870 2512.093 1119.418 0.000 0.000
-1123.280 384.167 -2918.015 -6334.564 -11038.910 2031.654 9481.571 -9534.848 248.375 6042.550 296.723 -1212.471 0.000 -3932.867 -2614.764 -6588.292 10336.395 2231.314 0.000 -6524.221 2302.501 3982.741 8277.780 141.419 3897.172 3100.426 7721.888 -6211.480 -998.871 -5056.202 2506.778 1105.809 0.000 0.000
-1121.827 384.461 -2918.916 -6335.631 -11038.635 2035.405 9480.579 -9538.268 247.529 6043.230 294.773 -1215.083 0.000 -3940.481 -2615.867 -6588.530 10332.955 2247.810 0.000 -6529.517 2299.725 3982.465 8272.668 164.002 3891.784 3095.883 7714.752 -6158.664 -1006.319 -5044.634 2479.469 1085.323 0.000 0.000
-1117.579 392.038 -2917.279 -6337.617 -11035.159 2041.805 9480.909 -9542.203 244.256 6048.729 293.835 -1217.988 0.000 -3949.198 -2616.640 -6588.163 10331.889 2258.917 0.000 -6536.910 2299.522 3984.028 8262.627 179.376 3885.347 3092.610 7706.054 -6096.193 -1014.466 -5037.058 2448.702 1055.862 0.000 0.000
-1112.540 399.578 -2914.539 -6339.493 -11031.426 2051.386 9480.854 -9543.123 242.656 6055.588 294.718 -1222.034 0.000 -3960.489 -2616.125 -6584.871 10328.800 2267.561 0.000 -6546.270 2300.185 3982.612 8250.214 199.366 3875.748 3088.509 7693.163 -6020.242 -1025.923 -5022.567 2412.860 1016.158 0.000 0.000
-1112.135 400.755 -2915.238 -6343.778 -11032.731 2054.439 9476.754 -9549.118 238.500 6056.176 288.870 -1227.054 0.000 -3971.394 -2619.417 -6586.856 10325.065 2272.379 0.000 -6556.329 2295.973 3979.375 8239.438 229.985 3866.075 3081.888 7679.830 -5872.222 -1037.821 -5004.747 2365.910 977.502 0.000 0.000
-1127.601 386.135 -2929.711 -6358.931 -11047.737 2041.180 9462.520 -9565.118 222.868 6040.306 269.984 -1244.212 0.000 -3987.780 -2634.441 -6601.661 10307.595 2267.174 0.000 -6571.869 2279.992 3962.034 8222.610 245.341 3850.921 3067.176 7663.076 -5418.448 -1052.331 -5007.064 2323.411 934.966 0.000 0.000
-1193.548 320.703 -2994.867 -6420.170 -11112.176 1972.695 9398.780 -9626.614 162.237 5976.548 201.481 -1303.373 0.000 -4044.513 -2695.128 -6670.126 10247.497 2217.172 0.000 -6628.750 2218.606 3897.411 8165.785 209.664 3791.834 3005.698 7606.876 -3666.047 -1109.027 -5062.142 2273.832 859.769 0.000 0.000
-1275.549 239.511 -3073.080 -6494.079 -11189.635 1887.734 9321.744 -9700.026 86.617 5895.209 118.156 -1376.400 0.000 -4112.225 -2769.313 -6753.434 10173.514 2157.294 0.000 -6696.480 2142.932 3820.173 8100.299 170.475 3720.297 2932.359 7539.992 -1592.592 -1176.703 -5119.703 2239.295 783.653 0.000 0.000
-1293.534 218.731 -3085.787 -6505.684 -11204.623 1867.560 9307.786 -9707.916 79.371 5876.120 98.203 -1384.307 0.000 -4115.958 -2779.980 -6775.023 10163.362 2159.170 0.000 -6699.900 2131.604 3807.024 8099.195 226.454 3715.148 2923.311 7538.981 -1418.219 -1176.758 -5113.487 2261.621 787.956 0.000 0.000
-1304.237 209.959 -3094.559 -6509.454 -11213.119 1854.006 9301.129 -9711.061 75.178 5865.858 84.373 -1387.599 0.000 -4115.314 -2784.798 -6787.492 10156.926 2165.404 0.000 -6700.838 2125.222 3798.252 8102.211 306.046 3713.125 2920.902 7541.813 -1402.201 -1175.562 -5115.988 2277.216 804.673 0.000 0.000
-1312.660 201.389 -3102.834 -6515.228 -11221.835 1845.289 9294.012 -9717.533 68.245 5857.049 71.519 -1394.183 0.000 -4122.670 -2791.290 -6798.967 10149.810 2164.632 0.000 -6706.723 2117.719 3790.473 8095.903 401.822 3706.505 2913.675 7537.179 -1359.131 -1180.638 -5102.563 2289.463 821.978 0.000 0.000
-1317.165 198.281 -3107.414 -6522.234 -11226.838 1841.685 9288.587 -9726.270 61.036 5851.680 60.944 -1401.484 0.000 -4131.571 -2796.273 -6805.625 10143.372 2163.326 0.000 -6715.642 2111.043 3783.007 8084.667 520.106 3697.641 2905.418 7525.722 -1357.311 -1189.723 -5088.384 2306.271 843.476 0.000 0.000
-1319.188 197.840 -3111.110 -6529.002 -11227.703 1843.910 9282.960 -9732.393 55.703 5852.176 50.315 -1411.359 0.000 -4145.676 -2801.753 -6807.923 10136.090 2156.467 0.000 -6727.246 2105.710 3773.830 8069.881 664.780 3684.492 2896.903 7511.286 -1337.781 -1203.570 -5106.039 2305.591 873.194 0.000 0.000
-1319.777 198.263 -3113.464 -6536.891 -11230.901 1846.871 9278.620 -9741.974 47.906 5852.525 40.605 -1419.984 0.000 -4163.000 -2807.564 -6808.788 10128.403 2146.720 0.000 -6741.958 2097.876 3765.169 8053.091 830.456 3671.527 2885.906 7493.079 -1316.742 -1221.832 -5142.966 2304.194 925.109 0.000 0.000
-1325.570 193.481 -3122.162 -6548.183 -11239.306 1843.046 9267.530 -9752.677 37.111 5846.328 24.495 -1433.703 0.000 -4181.959 -2817.569 -6815.261 10114.243 2133.387 0.000 -6758.086 2087.099 3752.737 8033.671 1043.688 3653.762 2871.727 7472.905 -1329.928 -1239.504 -5175.259 2333.158 1031.182 0.000 0.000
-1347.564 171.101 -3145.867 -6572.604 -11258.966 1823.277 9244.689 -9778.165 15.209 5824.628 -6.547 -1459.044 0.000 -4207.319 -2840.152 -6838.653 10090.925 2106.372 0.000 -6782.895 2063.064 3726.917 8007.430 1440.526 3627.869 2846.202 7445.449 -1372.391 -1266.170 -5204.039 2503.578 1143.527 0.000 0.000
-1393.263 126.799 -3188.550 -6613.357 -11302.898 1776.308 9200.939 -9819.322 -25.636 5779.480 -60.466 -1499.153 0.000 -4246.895 -2882.118 -6883.782 10050.283 2063.854 0.000 -6821.237 2019.480 3684.400 7970.796 2274.917 3588.036 2806.185 7408.209 -1448.856 -1301.589 -5245.748 2858.781 1124.641 0.000 0.000
-1434.861 84.226 -3228.089 -6648.224 -11341.996 1731.897 9162.744 -9852.314 -59.381 5738.435 -113.227 -1532.347 0.000 -4276.227 -2916.930 -6923.523 10016.775 2030.238 0.000 -6848.491 1984.704 3647.969 7945.216 2863.581 3556.700 2772.421 7382.629 -1546.709 -1328.604 -5270.445 3291.332 1113.018 0.000 0.000
-1452.166 63.887 -3241.661 -6657.456 -11357.866 1711.263 9150.258 -9860.866 -68.521 5719.879 -139.543 -1540.659 0.000 -4277.698 -2926.603 -6939.375 10008.262 2019.149 0.000 -6848.730 1975.141 3637.708 7945.105 2782.260 3551.900 2764.661 7384.634 -1625.510 -1329.946 -5255.329 3676.345 1131.721 0.000 0.000
-1473.057 44.945 -3257.844 -6671.028 -11376.146 1687.853 9131.702 -9873.554 -79.592 5699.540 -146.403 -1552.300 0.000 -4286.433 -2940.984 -6960.266 9998.404 2001.384 0.000 -6855.001 1963.519 3624.191 7943.928 2740.018 3543.900 2753.204 7380.992 -1633.014 -1335.224 -5241.978 4013.434 1156.308 0.000 0.000
-1483.650 33.488 -3267.701 -6677.593 -11383.189 1677.113 9123.702 -9880.102 -87.518 5690.032 -149.088 -1559.012 0.000 -4293.605 -2948.358 -6971.557 9988.915 1987.187 0.000 -6858.900 1955.280 3613.341 7936.278 2711.348 3538.144 2747.429 7378.896 -1569.439 -1339.270 -5241.389 4141.483 1187.920 0.000 0.000
-1485.802 32.826 -3271.232 -6681.823 -11387.328 1674.869 9118.793 -9885.122 -91.711 5686.685 -148.554 -1562.874 0.000 -4299.196 -2953.287 -6979.244 9982.828 1966.130 0.000 -6867.286 1951.253 3608.375 7927.286 2687.184 3528.287 2739.595 7367.108 -1480.322 -1346.608 -5245.233 4209.324 1205.189 0.000 0.000
-1483.117 34.518 -3270.239 -6683.184 -11384.385 1678.713 9117.192 -9887.017 -95.315 5690.399 -144.601 -1568.630 0.000 -4308.428 -2954.942 -6979.998 9982.662 1945.386 0.000 -6873.318 1952.338 3607.438 7920.757 2708.424 3523.211 2736.837 7356.810 -1449.261 -1354.902 -5252.239 4216.809 1218.595 0.000 0.000
-1475.191 43.235 -3267.204 -6684.894 -11380.394 1689.931 9119.123 -9889.021 -96.823 5698.326 -138.182 -1571.646 0.000 -4317.126 -2953.379 -6977.994 9981.026 1918.279 0.000 -6880.085 1952.816 3607.235 7911.930 2753.057 3518.541 2734.317 7346.511 -1455.789 -1361.559 -5271.089 4209.159 1236.930 0.000 0.000
-1464.837 54.103 -3260.584 -6681.455 -11373.866 1701.884 9123.169 -9887.384 -93.936 5708.605 -127.663 -1570.175 0.000 -4322.275 -2949.315 -6971.704 9980.419 1893.122 0.000 -6884.683 1955.096 3606.941 7905.475 2746.436 3515.745 2733.802 7338.879 -1433.114 -1366.800 -5292.201 4179.054 1237.573 0.000 0.000
-1457.408 63.519 -3252.216 -6674.945 -11364.965 1710.969 9129.937 -9881.132 -87.316 5717.488 -117.052 -1565.578 0.000 -4321.926 -2943.687 -6964.054 9984.354 1886.023 0.000 -6883.083 1960.760 3611.097 7904.832 2730.106 3516.242 2736.083 7337.555 -1486.225 -1366.267 -5296.338 4143.764 1229.978 0.000 0.000
-1455.660 64.236 -3250.230 -6671.322 -11362.832 1711.502 9132.033 -9878.667 -84.153 5718.408 -113.521 -1563.463 0.000 -4319.076 -2941.499 -6963.760 9988.915 1906.859 0.000 -6879.350 1964.714 3613.782 7908.859 2704.250 3519.552 2740.459 7340.516 -1512.302 -1361.964 -5295.695 4125.649 1213.850 0.000 0.000
-1466.621 54.214 -3257.513 -6675.350 -11369.819 1700.137 9124.989 -9882.677 -88.217 5708.220 -122.073 -1568.428 0.000 -4318.947 -2946.667 -6975.640 9988.345 1951.234 0.000 -6874.789 1961.330 3611.631 7913.346 2715.100 3521.593 2738.860 7344.139 -1443.872 -1357.495 -5290.435 4112.078 1193.860 0.000 0.000
-1474.804 45.497 -3264.519 -6676.857 -11377.397 1689.747 9120.024 -9883.982 -89.670 5698.454 -127.866 -1567.049 0.000 -4314.680 -2949.296 -6983.400 9986.745 1978.562 0.000 -6872.398 1958.388 3609.792 7918.090 2753.001 3523.837 2740.533 7353.407 -1455.697 -1350.231 -5269.636 4104.519 1177.346 0.000 0.000
-1477.490 39.925 -3263.490 -6673.216 -11378.150 1684.874 9120.244 -9879.182 -84.116 5695.015 -128.399 -1563.058 0.000 -4308.115 -2947.421 -6986.527 9984.594 1947.685 0.000 -6868.334 1955.887 3608.118 7924.068 2757.378 3527.625 2744.266 7360.120 -1508.182 -1343.297 -5235.523 4124.086 1171.002 0.000 0.000
-1479.384 38.214 -3263.434 -6672.039 -11377.783 1680.938 9118.884 -9877.490 -84.520 5694.997 -129.833 -1560.208 0.000 -4304.805 -2949.131 -6990.297 9982.294 1876.387 0.000 -6867.783 1954.986 3605.507 7925.961 2772.477 3528.397 2742.225 7359.954 -1462.612 -1342.488 -5218.696 4139.295 1160.041 0.000 0.000
-1480.377 38.545 -3264.593 -6673.327 -11379.052 1680.258 9117.303 -9879.145 -84.962 5696.689 -131.139 -1561.274 0.000 -4308.410 -2949.866 -6990.903 9983.747 1801.815 0.000 -6869.438 1955.427 3605.433 7926.182 2754.510 3525.345 2740.128 7357.729 -1367.830 -1343.592 -5222.098 4171.018 1152.060 0.000 0.000
-1480.064 38.178 -3266.800 -6677.078 -11378.482 1682.317 9116.236 -9883.100 -87.978 5696.431 -132.500 -1566.883 0.000 -4317.825 -2954.519 -6992.521 9982.387 1742.931 0.000 -6871.810 1956.659 3605.911 7921.457 2764.955 3520.067 2737.278 7351.255 -1286.178 -1349.661 -5233.114 4228.652 1134.093 0.000 0.000
-1486.942 34.169 -3275.296 -6690.337 -11387.972 1678.933 9105.000 -9897.866 -102.910 5690.068 -143.111 -1583.250 0.000 -4338.275 -2966.804 -7002.084 9971.058 1684.855 0.000 -6889.317 1945.993 3593.498 7902.349 2985.286 3503.737 2724.166 7330.365 -1223.744 -1367.977 -5245.398 4360.343 1091.686 0.000 0.000
-1474.418 47.722 -3265.586 -6684.839 -11377.139 1693.075 9113.293 -9895.016 -98.681 5701.250 -133.438 -1580.896 0.000 -4340.959 -2961.047 -6991.271 9970.323 1653.445 0.000 -6892.517 1949.616 3597.011 7893.908 2815.068 3504.233 2727.274 7324.995 -1199.157 -1371.122 -5215.092 4433.001 1057.002 0.000 0.000
-1462.465 59.418 -3256.593 -6677.704 -11366.253 1707.585 9122.396 -9888.083 -92.079 5713.534 -124.059 -1575.435 0.000 -4337.705 -2951.521 -6977.607 9976.465 1640.296 0.000 -6890.751 1955.942 3603.135 7894.864 2523.586 3507.249 2731.614 7322.990 -1118.903 -1367.812 -5163.250 4460.477 1031.035 0.000 0.000
-1470.152 52.448 -3262.919 -6684.544 -11372.854 1700.137 9114.544 -9892.515 -98.350 5705.884 -132.757 -1581.283 0.000 -4344.914 -2959.576 -6986.490 9970.212 1623.322 0.000 -6898.457 1946.324 3594.510 7887.011 2748.772 3498.551 2721.481 7316.885 -1076.017 -1377.043 -5169.135 4435.705 991.662 0.000 0.000
-1478.335 43.805 -3269.080 -6687.248 -11379.824 1690.593 9110.130 -9895.696 -100.888 5699.374 -141.713 -1584.023 0.000 -4345.098 -2964.983 -6993.386 9963.813 1609.364 0.000 -6899.119 1939.134 3591.420 7887.122 2772.256 3494.045 2717.509 7318.705 -959.039 -1377.595 -5166.284 4453.856 951.260 0.000 0.000
-1483.668 38.582 -3270.754 -6684.691 -11383.521 1682.336 9109.670 -9892.570 -98.019 5695.530 -146.311 -1579.131 0.000 -4337.429 -2965.277 -6994.453 9967.398 1599.636 0.000 -6891.414 1939.667 3594.546 7899.112 2731.209 3499.728 2720.249 7330.622 -789.593 -1368.841 -5149.862 4288.806 938.791 0.000 0.000
-1429.583 90.460 -3212.770 -6623.692 -11326.475 1734.195 9167.802 -9830.927 -35.621 5749.156 -91.031 -1516.715 0.000 -4272.935 -2904.535 -6938.713 10031.562 1688.092 0.000 -6821.090 1999.655 3656.465 7971.697 2809.459 3566.336 2785.699 7405.929 -754.082 -1298.169 -5059.623 2463.230 996.315 0.000 0.000
-1427.836 92.134 -3209.975 -6617.771 -11324.140 1733.055 9171.792 -9824.288 -29.424 5749.652 -90.405 -1510.812 0.000 -4264.513 -2899.956 -6936.635 10039.947 1732.853 0.000 -6811.564 2004.473 3661.578 7983.578 2851.130 3575.770 2795.409 7419.758 -791.175 -1286.656 -5013.739 2232.693 995.524 0.000 0.000
-1431.147 86.746 -3214.811 -6624.722 -11328.885 1728.789 9165.705 -9829.087 -35.842 5744.705 -97.044 -1515.538 0.000 -4271.648 -2906.705 -6940.588 10032.242 1703.282 0.000 -6818.240 1993.641 3655.288 7977.086 2887.837 3570.087 2788.880 7411.740 -896.715 -1293.019 -5006.807 2479.708 985.594 0.000 0.000
-1427.119 91.748 -3212.880 -6627.315 -11326.715 1735.961 9167.231 -9831.698 -36.467 5750.461 -96.198 -1516.899 0.000 -4275.785 -2905.399 -6937.517 10028.914 1668.102 0.000 -6826.184 1988.253 3651.721 7967.523 2929.031 3565.729 2785.478 7407.676 -1183.286 -1299.309 -5045.518 2833.991 976.987 0.000 0.000
-1421.915 98.147 -3210.581 -6630.073 -11324.802 1743.391 9166.790 -9834.550 -39.870 5755.316 -95.683 -1523.924 0.000 -4283.123 -2908.176 -6934.869 10022.991 1646.935 0.000 -6836.520 1982.902 3648.778 7954.559 2919.872 3555.854 2778.527 7387.521 -1262.529 -1310.913 -5147.233 3139.651 963.838 0.000 0.000
-1415.129 107.434 -3206.260 -6628.602 -11319.523 1754.057 9169.770 -9836.609 -40.017 5763.628 -92.833 -1525.708 0.000 -4290.645 -2906.006 -6928.415 10021.317 1631.653 0.000 -6839.223 1987.187 3650.010 7946.062 2890.632 3551.054 2776.265 7375.145 -1258.593 -1317.680 -5214.411 3251.334 944.584 0.000 0.000
-1410.734 111.020 -3204.660 -6630.459 -11317.335 1759.941 9169.898 -9838.503 -41.249 5769.624 -91.950 -1528.356 0.000 -4296.566 -2905.583 -6926.447 10023.103 1622.771 0.000 -6839.076 1992.299 3652.732 7941.152 2851.314 3549.859 2775.916 7370.621 -1146.745 -1322.167 -5251.081 3236.585 924.226 0.000 0.000
-1407.607 112.363 -3203.520 -6629.540 -11315.275 1761.266 9171.259 -9836.977 -38.950 5769.476 -91.380 -1526.701 0.000 -4295.463 -2904.848 -6924.185 10028.012 1621.759 0.000 -6834.957 1997.246 3657.753 7946.760 2848.924 3552.250 2779.741 7372.956 -1061.912 -1317.349 -5342.295 3206.260 905.174 0.000 0.000
-1464.249 55.152 -3258.396 -6682.632 -11371.199 1702.068 9115.225 -9889.903 -94.157 5711.052 -149.805 -1578.781 0.000 -4345.759 -2958.896 -6981.286 9971.739 1562.083 0.000 -6886.117 1941.653 3602.803 7897.402 4518.037 3500.831 2725.821 7323.027 -1072.192 -1367.480 -5500.082 3140.589 833.931 0.000 0.000
-1287.429 231.126 -3078.265 -6497.077 -11193.772 1879.421 9296.642 -9704.900 92.630 5889.913 29.957 -1393.613 0.000 -4158.016 -2776.247 -6800.530 10149.718 1735.152 0.000 -6703.008 2116.818 3776.865 8081.744 180.424 3687.931 2911.542 7512.187 -902.912 -1179.369 -6228.767 3331.257 1001.041 0.000 0.000
-1258.557 258.747 -3047.094 -6462.872 -11162.786 1904.395 9329.229 -9668.782 128.693 5917.847 59.859 -1354.699 0.000 -4119.985 -2742.207 -6770.665 10185.100 1769.228 0.000 -6662.109 2150.416 3808.054 8124.573 -259.133 3723.920 2947.329 7552.405 -828.782 -1139.279 -6782.692 3375.062 1025.132 0.000 0.000
-1282.132 233.884 -3069.401 -6481.114 -11183.806 1878.667 9307.915 -9684.708 110.064 5894.014 35.621 -1372.942 0.000 -4136.040 -2762.822 -6795.031 10166.545 1747.712 0.000 -6675.901 2129.286 3788.156 8112.234 -226.381 3706.339 2928.295 7541.960 -811.054 -1155.499 -6312.202 3359.871 1008.636 0.000 0.000
-1293.700 219.429 -3083.672 -6495.072 -11197.652 1864.323 9295.317 -9697.636 96.713 5881.380 17.857 -1386.864 0.000 -4150.145 -2778.177 -6807.316 10151.280 1730.849 0.000 -6690.246 2116.836 3771.513 8099.141 -164.830 3692.786 2912.663 7528.370 -551.185 -1170.284 -6266.558 3338.925 1016.250 0.000 0.000
-1272.809 241.130 -3060.887 -6476.995 -11177.773 1887.660 9314.811 -9680.516 116.059 5902.767 38.104 -1368.437 0.000 -4133.649 -2758.666 -6784.825 10170.148 1747.013 0.000 -6672.058 2136.955 3789.094 8115.618 29.792 3708.877 2931.146 7542.383 -1138.470 -1153.770 -6392.199 3349.224 1050.474 0.000 0.000
-1112.190 403.550 -2904.333 -6321.176 -11019.049 2051.386 9471.236 -9525.929 271.050 6065.096 196.607 -1215.432 0.000 -3984.230 -2601.744 -6623.343 10324.164 1889.278 0.000 -6517.361 2293.454 3947.450 8264.779 421.002 3860.153 3084.444 7691.011 -5802.652 -1003.800 -6301.646 3493.879 1204.747 0.000 0.000
-1071.254 444.946 -2867.700 -6288.920 -10981.460 2093.168 9506.839 -9493.507 302.736 6106.712 231.898 -1184.095 0.000 -3954.843 -2566.858 -6583.583 10358.536 1901.011 0.000 -6488.323 2327.917 3984.304 8281.146 615.072 3890.607 3116.627 7713.759 -6846.726 -977.502 -6300.708 3511.626 1218.705 0.000 0.000
-1070.482 445.976 -2868.822 -6293.059 -10981.000 2097.563 9504.025 -9499.760 299.040 6107.246 228.661 -1191.690 0.000 -3962.677 -2570.150 -6578.784 10353.294 1896.690 0.000 -6495.367 2325.269 3979.927 8271.564 677.432 3883.858 3112.177 7700.629 -6748.192 -985.538 -6324.027 3495.387 1191.139 0.000 0.000
-1072.670 443.787 -2872.353 -6298.686 -10983.869 2094.290 9499.760 -9504.614 293.486 6104.469 225.921 -1195.332 0.000 -3968.157 -2574.287 -6580.604 10349.855 1871.587 0.000 -6498.328 2321.131 3974.208 8270.149 693.248 3879.426 3107.561 7697.043 -6593.863 -990.872 -6336.698 3487.369 1157.209 0.000 0.000
-1080.321 434.022 -2880.260 -6304.699 -10991.520 2085.224 9493.028 -9508.789 288.447 6095.991 216.046 -1199.819 0.000 -3972.828 -2581.055 -6586.986 10343.235 1833.998 0.000 -6500.552 2314.087 3965.840 8271.014 673.387 3873.486 3101.749 7696.786 -6361.634 -993.814 -6340.284 3485.144 1131.261 0.000 0.000
-1081.111 432.073 -2875.755 -6299.237 -10990.783 2082.336 9495.714 -9499.483 295.472 6095.090 216.763 -1191.966 0.000 -3962.401 -2575.814 -6585.238 10347.078 1837.161 0.000 -6491.155 2318.869 3962.861 8284.585 638.905 3880.823 3106.788 7705.116 -6450.679 -984.785 -6326.418 3495.535 1119.951 0.000 0.000
-1100.550 410.060 -2892.949 -6311.945 -11008.475 2058.154 9480.615 -9510.536 282.029 6075.744 199.329 -1201.768 0.000 -3970.070 -2591.500 -6602.948 10333.653 1837.124 0.000 -6499.982 2302.410 3944.011 8280.907 571.120 3869.312 3092.462 7701.953 -6012.556 -994.145 -6330.188 3487.259 1101.635 0.000 0.000
-1167.655 342.201 -2958.344 -6375.004 -11073.962 1987.996 9417.630 -9570.708 220.625 6006.101 130.404 -1261.186 0.000 -4029.029 -2655.626 -6670.973 10270.245 1790.524 0.000 -6556.439 2239.222 3880.382 8222.243 480.788 3807.319 3031.684 7643.436 -4190.162 -1052.202 -6386.332 3426.572 1050.547 0.000 0.000
-1206.347 304.005 -2995.621 -6412.317 -11113.391 1947.372 9380.537 -9607.157 184.010 5967.794 89.706 -1299.732 0.000 -4066.507 -2693.271 -6709.886 10233.410 1759.022 0.000 -6592.870 2202.147 3836.264 8187.339 427.531 3769.950 2993.580 7603.658 -3135.440 -1087.787 -6422.303 3387.365 1069.121 0.000 0.000
-1229.831 278.038 -3020.999 -6438.266 -11138.438 1924.054 9354.681 -9633.326 157.308 5942.655 64.236 -1326.894 0.000 -4093.614 -2719.329 -6736.644 10206.340 1741.184 0.000 -6619.848 2176.585 3805.001 8156.020 385.307 3743.119 2965.939 7575.816 -2927.468 -1115.354 -6452.297 3357.205 1619.056 0.000 0.000
-1184.371 322.836 -2980.486 -6399.297 -11096.214 1969.532 9394.753 -9594.799 195.008 5988.042 104.400 -1289.305 0.000 -4057.514 -2678.154 -6694.126 10245.566 1774.598 0.000 -6581.432 2218.643 3843.547 8188.369 408.626 3779.807 3004.466 7612.725 -2895.653 -1079.585 -6421.954 3387.824 514.460 0.000 0.000
-1175.710 334.146 -2974.160 -6397.587 -11089.593 1982.037 9398.339 -9595.020 197.748 5996.667 109.457 -1291.401 0.000 -4060.255 -2673.796 -6685.133 10247.570 1776.474 0.000 -6582.021 2225.999 3845.092 8181.270 393.233 3778.943 3007.519 7603.327 -2923.146 -1081.259 -6432.234 3375.650 508.171 0.000 0.000
-1174.680 336.298 -2975.925 -6402.755 -11090.108 1984.759 9395.599 -9599.856 192.635 5997.034 107.324 -1298.058 0.000 -4069.707 -2677.400 -6685.170 10244.297 1772.980 0.000 -6588.788 2225.503 3839.133 8170.034 375.340 3772.727 3002.296 7591.153 -2949.903 -1088.615 -6447.553 3357.095 684.696 0.000 0.000
-1175.158 334.201 -2981.166 -6408.087 -11092.021 1981.468 9391.020 -9607.268 186.180 5996.299 103.223 -1304.348 0.000 -4078.056 -2681.115 -6688.039 10239.020 1771.123 0.000 -6594.985 2223.314 3833.065 8162.162 362.375 3766.438 2997.184 7583.577 -2971.824 -1096.063 -6456.729 3345.068 859.328 0.000 0.000
-1203.331 308.143 -3004.466 -6432.951 -11117.712 1956.402 9366.450 -9630.016 163.303 5969.835 76.208 -1328.365 0.000 -4099.996 -2706.512 -6713.527 10211.802 1754.277 0.000 -6615.159 2199.150 3805.112 8139.598 340.031 3742.604 2973.829 7558.235 -3003.308 -1118.921 -6474.898 3321.694 1562.801 0.000 0.000
-1244.617 265.441 -3044.207 -6470.503 -11158.795 1910.831 9327.298 -9664.626 124.353 5927.428 35.125 -1362.938 0.000 -4133.999 -2745.333 -6755.824 10173.643 1726.876 0.000 -6647.378 2160.108 3764.120 8106.533 308.345 3704.555 2935.283 7520.812 -3043.545 -1153.991 -6504.893 3289.861 2650.128 0.000 0.000
-1274.629 232.339 -3069.953 -6491.909 -11185.479 1879.145 9300.302 -9685.461 102.083 5896.662 7.393 -1384.491 0.000 -4152.609 -2770.233 -6783.648 10149.644 1709.295 0.000 -6665.327 2133.295 3736.241 8092.299 298.672 3682.083 2913.178 7523.570 -3062.469 -1172.363 -6517.361 3276.528 3283.627 0.000 0.000
-1285.351 219.944 -3079.369 -6497.537 -11196.531 1863.661 9291.824 -9689.618 96.125 5884.911 -5.186 -1389.806 0.000 -4153.216 -2778.306 -6793.983 10143.134 1705.654 0.000 -6666.486 2123.677 3725.630 8091.416 302.056 3676.842 2907.717 7515.276 -3068.353 -1174.018 -6515.394 3278.808 3466.865 0.000 0.000
-1287.043 216.101 -3080.344 -6497.574 -11198.370 1860.075 9292.045 -9688.496 96.272 5884.285 -7.613 -1388.960 0.000 -4151.965 -2779.686 -6795.399 10143.079 1702.326 0.000 -6663.948 2122.482 3723.424 8093.660 305.605 3678.993 2908.397 7512.812 -3070.560 -1172.050 -6513.444 3281.144 3475.250 0.000 0.000
-1285.351 218.878 -3078.633 -6496.121 -11196.494 1863.256 9294.453 -9686.969 96.676 5884.855 -7.007 -1388.537 0.000 -4151.396 -2776.449 -6791.832 10144.789 1702.399 0.000 -6661.759 2125.608 3725.318 8092.280 304.079 3678.828 2909.721 7512.242 -3078.560 -1171.241 -6515.099 3279.084 3453.182 0.000 0.000
-1277.480 226.638 -3073.925 -6493.858 -11192.246 1871.330 9295.741 -9687.007 99.104 5891.770 -1.949 -1386.827 0.000 -4152.223 -2773.672 -6784.954 10146.995 1697.618 0.000 -6660.270 2129.728 3728.518 8089.688 296.539 3679.453 2911.009 7505.658 -3090.200 -1172.179 -6521.774 3272.464 3426.554 0.000 0.000
-1266.685 236.128 -3069.125 -6491.928 -11182.629 1882.860 9300.945 -9687.355 100.777 5899.972 2.759 -1386.974 0.000 -4154.393 -2770.343 -6774.784 10148.356 1697.765 0.000 -6661.098 2135.520 3733.299 8083.655 285.321 3681.016 2913.896 7493.925 -3104.011 -1173.723 -6531.264 3261.375 3397.038 0.000 0.000
-1257.858 246.518 -3061.843 -6489.997 -11176.688 1894.391 9304.108 -9688.128 103.168 5908.744 7.080 -1388.243 0.000 -4156.048 -2763.815 -6766.454 10150.397 1696.533 0.000 -6660.748 2141.056 3737.161 8079.151 274.452 3681.090 2915.348 7492.271 -3118.815 -1174.919 -6541.121 3250.046 3363.200 0.000 0.000
-1254.786 251.538 -3059.489 -6490.732 -11173.967 1899.430 9305.929 -9688.367 104.474 5912.992 9.471 -1387.342 0.000 -4156.931 -2761.700 -6763.493 10152.365 1695.724 0.000 -6661.244 2142.012 3738.779 8077.312 268.181 3680.281 2917.132 7506.449 -3127.661 -1177.696 -6545.626 3244.971 3342.088 0.000 0.000
-1254.603 250.030 -3059.802 -6490.346 -11173.507 1900.349 9304.366 -9686.988 104.235 5912.220 8.423 -1388.316 0.000 -4156.526 -2762.583 -6763.217 10151.263 1694.216 0.000 -6660.398 2140.504 3738.724 8076.557 269.524 3679.968 2916.581 7521.657 -3131.541 -1176.206 -6545.461 3247.729 3333.427 0.000 0.000
-1260.120 244.366 -3062.045 -6491.339 -11177.038 1891.614 9302.489 -9686.657 105.816 5907.420 1.821 -1388.114 0.000 -4154.135 -2765.654 -6767.005 10149.257 1695.981 0.000 -6658.339 2136.330 3737.105 8081.247 276.935 3680.336 2915.790 7544.406 -3128.010 -1175.029 -6538.749 3251.628 3329.694 0.000 0.000
-1266.151 237.728 -3064.271 -6489.059 -11181.948 1882.621 9298.040 -9685.039 105.706 5901.112 -2.483 -1385.926 0.000 -4150.329 -2767.732 -6772.872 10149.276 1693.480 0.000 -6651.406 2133.479 3733.538 8088.253 290.672 3679.747 2916.139 7543.762 -3124.057 -1170.947 -6531.319 3261.338 3328.774 0.000 0.000
-1272.459 228.661 -3067.912 -6489.757 -11186.030 1874.162 9295.777 -9683.861 104.106 5892.745 -6.749 -1384.491 0.000 -4145.235 -2768.357 -6778.627 10147.271 1691.843 0.000 -6648.850 2129.378 3728.867 8092.980 303.159 3682.469 2915.808 7544.479 -3116.645 -1165.466 -6521.701 3272.096 3332.562 0.000 0.000
-1275.310 224.873 -3068.169 -6490.475 -11190.463 1868.847 9296.312 -9682.244 104.768 5889.876 -10.703 -1382.818 0.000 -4141.391 -2769.755 -6781.846 10145.561 1690.777 0.000 -6645.779 2126.804 3727.249 8095.352 308.658 3683.683 2914.944 7551.173 -3114.292 -1164.363 -6516.625 3277.153 3328.572 0.000 0.000
-1273.839 224.965 -3067.360 -6488.636 -11188.146 1868.038 9295.611 -9682.832 104.400 5889.710 -10.574 -1382.156 0.000 -4141.852 -2768.835 -6780.394 10145.470 1693.756 0.000 -6644.417 2129.139 3728.039 8094.028 308.897 3684.529 2915.845 7550.842 -3118.264 -1164.786 -6516.533 3275.958 3319.432 0.000 0.000
-1267.972 230.206 -3065.429 -6488.158 -11185.240 1875.155 9297.524 -9682.188 104.933 5895.742 -7.448 -1382.965 0.000 -4143.433 -2765.360 -6775.336 10147.105 1698.133 0.000 -6644.877 2132.780 3730.982 8091.141 302.001 3682.947 2917.482 7541.647 -3126.613 -1165.595 -6523.834 3271.121 3305.823 0.000 0.000
-1261.389 239.383 -3060.335 -6486.448 -11178.933 1885.968 9299.823 -9682.997 106.129 5905.544 -3.347 -1382.946 0.000 -4145.235 -2763.024 -6769.378 10148.834 1693.719 0.000 -6646.202 2139.106 3735.671 8085.531 291.592 3684.142 2918.162 7535.836 -3138.033 -1167.305 -6531.650 3259.278 3288.978 0.000 0.000
-1250.851 248.578 -3055.002 -6485.804 -11172.385 1899.043 9303.299 -9684.505 107.508 5913.029 1.784 -1384.381 0.000 -4148.325 -2759.934 -6761.359 10151.888 1688.037 0.000 -6648.059 2145.469 3739.662 8080.180 278.664 3686.110 2920.075 7532.103 -3151.402 -1169.696 -6541.525 3246.828 3271.177 0.000 0.000
-1245.555 254.959 -3051.379 -6484.333 -11166.758 1904.137 9305.781 -9684.892 108.280 5919.134 4.763 -1384.914 0.000 -4150.586 -2757.930 -6756.431 10152.218 1691.531 0.000 -6647.268 2150.343 3744.793 8075.472 270.278 3684.473 2922.392 7526.145 -3161.204 -1172.179 -6547.741 3239.583 3257.274 0.000 0.000
-1245.334 255.419 -3049.890 -6484.700 -11165.525 1905.829 9305.929 -9685.186 109.421 5919.760 3.844 -1385.411 0.000 -4150.973 -2756.661 -6753.875 10152.788 1695.356 0.000 -6645.668 2151.630 3745.473 8074.056 268.715 3685.963 2922.337 7523.257 -3164.533 -1171.204 -6548.532 3237.799 3250.322 0.000 0.000
-1248.957 249.497 -3051.968 -6483.817 -11169.921 1898.676 9303.483 -9685.223 108.703 5916.357 1.913 -1383.884 0.000 -4148.343 -2756.257 -6757.001 10151.427 1705.765 0.000 -6645.061 2148.632 3743.432 8077.238 275.482 3685.798 2922.355 7521.952 -3162.988 -1169.604 -6542.813 3244.088 3251.242 0.000 0.000
-1255.908 241.516 -3056.105 -6481.905 -11174.610 1890.290 9300.229 -9683.880 108.170 5908.781 -1.251 -1383.590 0.000 -4145.971 -2759.089 -6762.702 10149.423 1710.711 0.000 -6641.126 2144.200 3741.813 8081.468 287.381 3686.699 2920.994 7525.243 -3157.324 -1166.533 -6534.574 3251.481 3256.704 0.000 0.000
-1262.363 233.479 -3060.611 -6483.063 -11180.036 1880.617 9298.426 -9681.783 106.809 5899.935 -6.069 -1381.438 0.000 -4140.803 -2761.663 -6767.502 10146.866 1714.022 0.000 -6637.797 2139.548 3738.503 8086.561 299.205 3685.742 2919.633 7530.190 -3150.869 -1164.014 -6525.894 3262.570 3262.239 0.000 0.000
-1267.089 228.128 -3061.273 -6484.094 -11184.025 1874.511 9295.943 -9682.004 106.239 5895.099 -6.804 -1380.703 0.000 -4140.343 -2764.514 -6770.095 10146.609 1713.268 0.000 -6635.131 2135.208 3735.726 8090.846 305.752 3687.526 2918.861 7535.505 -3147.982 -1161.476 -6518.924 3271.158 3264.317 0.000 0.000
-1267.972 226.252 -3060.924 -6483.376 -11184.008 1873.334 9295.962 -9681.029 106.092 5896.073 -7.834 -1380.537 0.000 -4139.534 -2764.403 -6769.212 10144.715 1712.606 0.000 -6634.597 2134.527 3736.223 8092.116 307.223 3688.519 2917.537 7538.245 -3148.497 -1162.211 -6517.104 3269.816 3262.331 0.000 0.000
-1264.386 230.372 -3059.030 -6482.107 -11182.831 1878.208 9297.010 -9681.323 105.595 5900.395 -4.745 -1380.905 0.000 -4139.552 -2762.013 -6763.842 10145.451 1709.167 0.000 -6635.738 2137.065 3740.158 8089.081 301.320 3688.170 2918.199 7538.760 -3155.706 -1163.351 -6520.175 3264.685 3252.492 0.000 0.000
-1256.423 238.757 -3055.499 -6480.839 -11176.302 1886.832 9298.443 -9682.776 107.122 5906.684 -1.122 -1381.255 0.000 -4142.090 -2758.224 -6756.744 10148.301 1703.723 0.000 -6636.823 2142.325 3743.873 8084.796 291.463 3686.699 2920.056 7534.291 -3167.862 -1164.473 -6528.211 3257.108 3238.700 0.000 0.000
-1248.129 248.964 -3049.393 -6479.735 -11169.038 1897.977 9300.908 -9684.799 108.096 5913.452 2.575 -1379.177 0.000 -4144.407 -2754.969 -6748.542 10149.552 1699.530 0.000 -6636.418 2149.000 3749.868 8078.378 279.050 3687.066 2921.436 7530.080 -3182.684 -1167.379 -6537.443 3243.555 3222.903 0.000 0.000
-1241.472 255.750 -3045.936 -6479.735 -11163.650 1908.294 9303.446 -9684.267 109.825 5919.374 4.561 -1381.052 0.000 -4148.067 -2752.946 -6740.285 10152.348 1693.664 0.000 -6638.459 2153.138 3753.712 8073.542 271.105 3687.177 2923.808 7526.494 -3191.401 -1169.255 -6545.461 3235.960 3210.140 0.000 0.000
-1238.677 256.338 -3045.642 -6478.503 -11162.068 1911.641 9304.053 -9684.652 108.391 5921.543 3.439 -1382.615 0.000 -4148.085 -2750.887 -6737.269 10154.002 1691.862 0.000 -6639.268 2157.552 3755.073 8072.125 269.156 3687.949 2925.536 7522.448 -3195.906 -1168.997 -6544.670 3232.723 3203.538 0.000 0.000
-1242.833 252.991 -3047.554 -6477.032 -11163.301 1907.705 9302.692 -9683.493 108.630 5920.293 -0.515 -1382.432 0.000 -4146.081 -2752.413 -6739.567 10151.722 1692.487 0.000 -6637.448 2154.995 3753.473 8074.681 273.717 3688.427 2925.114 7522.632 -3193.368 -1167.544 -6540.404 3238.957 3205.800 0.000 0.000
-1249.141 245.543 -3050.441 -6478.006 -11169.094 1897.701 9300.393 -9681.783 108.685 5913.801 -4.837 -1381.089 0.000 -4142.164 -2754.785 -6741.259 10149.864 1694.289 0.000 -6633.862 2151.299 3749.556 8079.647 282.857 3688.721 2923.182 7524.048 -3187.760 -1165.521 -6530.639 3247.086 3214.167 0.000 0.000
-1258.060 237.231 -3054.928 -6478.135 -11176.781 1885.876 9295.538 -9680.644 109.016 5905.857 -9.747 -1380.151 0.000 -4138.669 -2757.801 -6748.119 10148.815 1694.896 0.000 -6629.871 2147.934 3746.025 8085.072 296.005 3689.917 2922.704 7527.322 -3180.091 -1162.505 -6519.237 3259.719 3223.142 0.000 0.000
-1262.952 228.257 -3056.768 -6478.797 -11179.244 1879.421 9293.460 -9678.271 109.108 5897.875 -16.183 -1379.728 0.000 -4135.323 -2760.413 -6750.822 10146.978 1695.172 0.000 -6626.708 2143.741 3742.476 8087.793 304.998 3690.101 2920.663 7529.216 -3172.919 -1159.379 -6510.281 3267.885 3230.902 0.000 0.000
-1263.558 227.760 -3058.367 -6477.326 -11179.465 1877.987 9292.964 -9677.774 108.335 5897.673 -21.645 -1379.195 0.000 -4133.024 -2760.964 -6752.091 10146.518 1693.057 0.000 -6627.131 2143.557 3742.365 8088.971 307.977 3690.101 2921.196 7528.977 -3172.422 -1159.692 -6508.240 3272.372 3231.215 0.000 0.000
-1261.278 230.519 -3056.344 -6475.744 -11178.767 1880.451 9294.380 -9677.646 108.225 5900.818 -27.898 -1378.496 0.000 -4133.704 -2758.776 -6748.413 10148.651 1688.625 0.000 -6625.090 2147.345 3745.712 8088.584 305.366 3688.685 2921.325 7527.027 -3177.590 -1160.814 -6508.736 3270.018 3224.025 0.000 0.000
-1256.313 237.948 -3053.273 -6475.432 -11172.808 1890.455 9299.032 -9679.136 111.701 5905.452 -26.390 -1380.317 0.000 -4136.775 -2756.367 -6742.768 10150.526 1681.747 0.000 -6626.616 2151.722 3748.967 8084.704 296.723 3689.825 2924.176 7523.129 -3186.730 -1160.685 -6515.394 3260.750 3212.494 0.000 0.000
-1247.118 246.408 -3048.069 -6475.101 -11168.303 1900.220 9299.125 -9679.981 112.436 5915.916 -5.002 -1381.071 0.000 -4140.454 -2752.946 -6735.485 10152.255 1671.945 0.000 -6630.257 2157.202 3752.884 8079.113 284.861 3689.347 2924.580 7518.292 -3200.044 -1164.087 -6524.110 3249.182 3198.407 0.000 0.000
-1241.932 251.869 -3046.690 -6474.384 -11164.238 1908.257 9300.393 -9681.435 110.671 5921.083 34.444 -1381.512 0.000 -4144.168 -2751.144 -6726.290 10153.689 1664.810 0.000 -6633.347 2161.800 3755.514 8071.923 272.871 3687.875 2925.555 7513.474 -3211.372 -1167.857 -6533.434 3238.681 3185.369 0.000 0.000
-1241.104 253.488 -3045.678 -6476.903 -11163.944 1911.218 9300.908 -9684.155 110.745 5922.702 72.641 -1383.608 0.000 -4147.607 -2750.169 -6721.766 10152.954 1660.543 0.000 -6634.910 2163.915 3756.047 8068.668 267.427 3686.662 2926.805 7511.212 -3218.894 -1169.622 -6536.542 3232.466 3176.873 0.000 0.000
-1243.219 252.292 -3047.039 -6476.958 -11165.121 1909.029 9300.210 -9683.182 110.138 5920.348 65.082 -1383.848 0.000 -4145.198 -2751.714 -6721.932 10152.476 1662.364 0.000 -6633.880 2164.264 3754.741 8070.121 269.082 3685.981 2926.732 7511.249 -3216.246 -1167.931 -6533.360 3236.456 3179.466 0.000 0.000
-1247.449 245.580 -3048.584 -6476.241 -11169.241 1900.643 9298.315 -9682.280 109.089 5913.690 53.864 -1383.094 0.000 -4142.274 -2754.381 -6724.929 10149.919 1664.148 0.000 -6629.761 2162.112 3751.358 8074.479 278.995 3686.735 2925.021 7514.890 -3210.306 -1165.797 -6526.685 3244.658 3187.723 0.000 0.000
-1257.398 235.263 -3054.119 -6476.057 -11175.475 1889.683 9293.258 -9681.360 108.060 5905.416 57.469 -1382.891 0.000 -4138.872 -2758.519 -6730.446 10147.547 1667.476 0.000 -6627.517 2156.724 3746.503 8080.162 289.845 3685.577 2923.624 7519.249 -3201.386 -1161.292 -6514.786 3256.373 3198.371 0.000 0.000
-1264.809 228.551 -3057.485 -6474.990 -11182.003 1878.704 9290.941 -9679.265 106.644 5899.384 45.736 -1381.567 0.000 -4133.704 -2762.436 -6736.588 10145.193 1671.265 0.000 -6625.237 2153.414 3742.549 8085.771 299.904 3686.827 2922.281 7522.430 -3191.732 -1159.287 -6504.396 3265.733 3208.503 0.000 0.000
-1267.089 224.689 -3058.643 -6475.505 -11184.872 1875.118 9290.021 -9679.338 106.478 5895.503 50.297 -1382.266 0.000 -4134.164 -2763.355 -6737.158 10144.587 1672.184 0.000 -6623.931 2150.711 3741.777 8086.396 305.697 3686.073 2920.387 7523.919 -3189.286 -1158.791 -6499.909 3268.786 3212.034 0.000 0.000
-1265.379 225.866 -3058.735 -6475.928 -11184.173 1876.663 9291.456 -9680.570 107.250 5898.004 54.177 -1383.038 0.000 -4133.796 -2762.491 -6734.750 10145.451 1670.364 0.000 -6624.005 2152.789 3742.751 8085.863 303.196 3684.878 2921.491 7524.839 -3193.736 -1160.391 -6500.792 3267.057 3206.113 0.000 0.000
-1260.175 231.236 -3054.230 -6475.781 -11178.251 1885.895 9294.122 -9680.441 107.692 5903.687 42.205 -1383.038 0.000 -4135.690 -2758.114 -6727.541 10146.518 1665.307 0.000 -6626.138 2158.195 3747.496 8082.074 295.086 3685.007 2924.966 7521.694 -3200.927 -1160.814 -6507.577 3260.602 3197.010 0.000 0.000
-1251.973 242.251 -3050.110 -6473.023 -11172.073 1895.733 9299.731 -9680.772 109.476 5912.275 44.228 -1383.186 0.000 -4139.277 -2754.730 -6720.258 10148.854 1657.583 0.000 -6627.793 2163.804 3752.792 8076.796 283.408 3683.425 2926.732 7517.722 -3213.524 -1162.892 -6518.262 3248.869 3184.431 0.000 0.000
-1243.477 250.417 -3046.156 -6471.735 -11166.188 1908.496 9302.619 -9681.821 109.310 5919.539 50.389 -1383.130 0.000 -4143.249 -2751.494 -6711.633 10151.170 1653.629 0.000 -6630.147 2170.848 3756.654 8071.298 271.584 3682.616 2929.141 7513.952 -3227.059 -1166.220 -6526.445 3237.265 3170.216 0.000 0.000
-1241.049 255.161 -3043.306 -6470.945 -11164.128 1914.123 9303.979 -9681.802 110.506 5922.463 58.112 -1382.505 0.000 -4145.731 -2748.606 -6708.856 10152.494 1650.006 0.000 -6630.809 2175.151 3757.666 8068.539 264.982 3683.370 2930.759 7509.814 -3235.334 -1167.765 -6531.172 3231.546 3163.650 0.000 0.000
-1240.828 251.060 -3044.814 -6470.246 -11163.926 1910.831 9302.453 -9681.783 111.094 5924.320 54.214 -1382.579 0.000 -4144.260 -2749.599 -6709.812 10152.145 1649.914 0.000 -6629.319 2175.482 3757.739 8070.084 266.821 3683.057 2931.017 7511.102 -3234.911 -1166.698 -6529.812 3234.286 3163.282 0.000 0.000
-1247.670 243.245 -3046.635 -6472.545 -11168.579 1905.057 9300.283 -9680.404 110.506 5918.196 48.954 -1382.671 0.000 -4141.906 -2751.990 -6713.545 10151.409 1650.760 0.000 -6627.352 2173.349 3756.323 8073.008 273.790 3684.124 2930.557 7515.056 -3228.530 -1163.590 -6522.786 3243.334 3170.565 0.000 0.000
-1255.338 233.590 -3050.883 -6472.435 -11173.231 1896.027 9297.285 -9680.000 109.549 5908.523 45.037 -1382.652 0.000 -4138.559 -2754.693 -6719.762 10147.382 1654.475 0.000 -6624.060 2169.469 3751.523 8076.778 287.141 3683.774 2928.626 7519.432 -3219.813 -1159.471 -6510.979 3253.283 3180.091 0.000 0.000
-1262.474 226.841 -3056.326 -6472.545 -11179.098 1883.780 9294.619 -9678.805 108.575 5901.829 30.325 -1381.365 0.000 -4134.330 -2757.728 -6724.193 10146.223 1659.146 0.000 -6620.547 2164.558 3747.478 8083.159 297.477 3683.995 2927.927 7523.533 -3211.464 -1157.283 -6498.732 3265.145 3190.444 0.000 0.000
-1267.237 222.574 -3058.533 -6472.269 -11183.935 1877.509 9292.210 -9677.959 108.372 5896.717 25.341 -1381.843 0.000 -4132.307 -2759.272 -6728.239 10143.979 1662.419 0.000 -6618.230 2162.480 3745.657 8087.150 305.182 3684.878 2927.909 7524.600 -3205.782 -1155.425 -6493.270 3271.452 3196.237 0.000 0.000
-1267.696 221.949 -3057.430 -6472.563 -11183.493 1879.054 9290.739 -9677.113 108.464 5895.650 32.569 -1381.163 0.000 -4133.649 -2759.530 -6727.706 10142.601 1665.233 0.000 -6617.108 2162.664 3745.786 8084.851 304.189 3683.021 2928.129 7526.347 -3209.313 -1156.786 -6493.693 3271.581 3194.509 0.000 0.000
-1261.903 226.565 -3055.719 -6471.772 -11180.495 1886.777 9293.332 -9677.885 108.317 5900.671 40.568 -1383.002 0.000 -4136.242 -2759.291 -6721.601 10144.898 1665.950 0.000 -6619.040 2164.963 3747.882 8080.989 296.815 3682.781 2929.748 7522.871 -3218.452 -1158.202 -6501.104 3264.225 3187.447 0.000 0.000
-1253.977 235.558 -3050.607 -6471.055 -11175.328 1895.549 9295.943 -9679.779 108.464 5908.983 50.315 -1383.112 0.000 -4139.883 -2754.510 -6713.638 10148.706 1665.123 0.000 -6621.798 2168.016 3752.700 8076.006 284.751 3680.832 2931.053 7518.991 -3233.606 -1160.814 -6510.042 3251.940 3175.273 0.000 0.000
-1247.173 243.502 -3046.947 -6470.025 -11167.843 1907.429 9298.555 -9680.331 109.476 5916.468 54.434 -1383.167 0.000 -4143.010 -2750.776 -6703.413 10150.544 1669.242 0.000 -6624.133 2171.031 3757.537 8069.367 272.062 3680.060 2933.628 7515.736 -3247.729 -1163.830 -6521.388 3238.645 3162.197 0.000 0.000
-1242.428 247.787 -3044.428 -6468.922 -11164.422 1913.388 9301.460 -9679.908 110.101 5920.183 56.880 -1383.351 0.000 -4144.702 -2749.691 -6698.042 10151.280 1673.821 0.000 -6626.983 2173.312 3761.178 8066.553 265.202 3679.600 2933.904 7512.150 -3258.377 -1165.172 -6528.064 3233.698 3154.051 0.000 0.000
