 	Fp1	Fpz	Fp2	F7	F3	Fz	F4	F8	FC5	FC1	FC2	FC6	M1	T7	C3	Cz	C4	T8	M2	CP5	CP1	CP2	CP6	P7	P3	Pz	P4	P8	POz	O1	Oz	O2	HEOG	VEOG	
0.0000	-1470.5000	41.0000	-3312.5000	-6722.5000	-11462.5000	1679.5000	9144.5000	-9911.0000	-123.0000	5676.5000	-26.5000	-1548.0000	0.0000	-4295.5000	-2949.5000	-6966.0000	10020.5000	1684.0000	0.0000	-6899.0000	1948.5000	3599.0000	7959.0000	2534.5000	3536.5000	2738.5000	7387.0000	-648.0000	-1350.5000	-5219.0000	3889.0000	1066.0000	0.0000	0.0000
1.9531	-1480.0000	32.0000	-3324.0000	-6737.5000	-11473.0000	1673.0000	9133.0000	-9924.5000	-136.0000	5667.5000	-38.0000	-1562.5000	0.0000	-4315.0000	-2962.5000	-6976.5000	10008.0000	1669.5000	0.0000	-6914.0000	1938.0000	3588.5000	7943.0000	2536.0000	3521.5000	2725.5000	7370.0000	-645.5000	-1367.0000	-5232.5000	4221.5000	1061.5000	0.0000	0.0000
3.9062	-1478.0000	32.5000	-3327.5000	-6744.5000	-11475.5000	1674.5000	9128.0000	-9933.5000	-143.0000	5668.0000	-41.5000	-1572.5000	0.0000	-4327.0000	-2969.5000	-6979.5000	9999.0000	1656.0000	0.0000	-6927.5000	1930.5000	3581.5000	7926.5000	2519.0000	3511.0000	2716.0000	7355.5000	-678.5000	-1380.5000	-5247.5000	4465.5000	1062.5000	0.0000	0.0000
5.8594	-1468.5000	45.0000	-3320.5000	-6741.5000	-11466.5000	1689.0000	9134.0000	-9930.5000	-141.5000	5679.5000	-33.5000	-1571.0000	0.0000	-4331.5000	-2965.5000	-6969.5000	9999.0000	1651.0000	0.0000	-6934.0000	1931.5000	3582.5000	7917.5000	2478.0000	3505.5000	2713.5000	7345.5000	-693.0000	-1389.5000	-5268.0000	4518.0000	1034.5000	0.0000	0.0000
7.8125	-1462.0000	52.5000	-3314.5000	-6739.5000	-11460.0000	1698.0000	9138.0000	-9929.5000	-138.5000	5687.0000	-31.0000	-1571.0000	0.0000	-4335.0000	-2962.5000	-6962.5000	10001.0000	1651.0000	0.0000	-6936.5000	1934.0000	3586.5000	7914.5000	2480.0000	3503.0000	2713.5000	7341.0000	-686.0000	-1393.5000	-5283.5000	4494.0000	1011.5000	0.0000	0.0000
9.7656	-1461.0000	54.0000	-3313.0000	-6739.0000	-11460.0000	1698.0000	9138.0000	-9930.0000	-139.5000	5688.0000	-30.5000	-1570.0000	0.0000	-4335.0000	-2962.0000	-6962.5000	10005.5000	1655.5000	0.0000	-6933.0000	1937.0000	3590.5000	7918.0000	2492.5000	3506.5000	2716.0000	7344.5000	-703.5000	-1392.5000	-5285.0000	4478.0000	997.0000	0.0000	0.0000
11.7188	-1463.5000	49.5000	-3315.5000	-6740.0000	-11462.0000	1693.5000	9137.5000	-9929.0000	-138.0000	5685.0000	-33.0000	-1569.0000	0.0000	-4331.0000	-2962.5000	-6965.0000	10005.5000	1663.5000	0.0000	-6928.5000	1938.0000	3592.5000	7925.0000	2514.0000	3511.5000	2718.5000	7351.0000	-735.5000	-1384.0000	-5275.0000	4467.0000	981.0000	0.0000	0.0000
13.6719	-1470.5000	42.5000	-3318.5000	-6737.0000	-11464.0000	1685.5000	9135.0000	-9925.0000	-137.0000	5678.5000	-37.0000	-1564.5000	0.0000	-4323.0000	-2961.5000	-6970.0000	10006.0000	1672.0000	0.0000	-6922.5000	1938.5000	3590.5000	7932.5000	2523.0000	3516.5000	2723.5000	7360.5000	-790.0000	-1376.0000	-5256.0000	4463.0000	984.5000	0.0000	0.0000
15.6250	-1478.0000	34.5000	-3320.0000	-6737.0000	-11469.0000	1675.0000	9131.5000	-9921.5000	-134.5000	5671.0000	-45.0000	-1562.5000	0.0000	-4315.5000	-2964.0000	-6975.5000	10003.0000	1677.5000	0.0000	-6917.5000	1934.0000	3586.5000	7937.0000	2513.0000	3519.0000	2722.5000	7366.5000	-808.0000	-1370.5000	-5233.0000	4486.0000	994.0000	0.0000	0.0000
17.5781	-1484.0000	28.5000	-3325.5000	-6738.5000	-11474.0000	1666.0000	9127.5000	-9923.5000	-136.0000	5663.5000	-53.0000	-1565.0000	0.0000	-4312.0000	-2967.0000	-6981.0000	10000.0000	1679.5000	0.0000	-6917.0000	1930.0000	3581.5000	7938.0000	2504.5000	3519.5000	2719.5000	7369.0000	-765.0000	-1367.5000	-5212.0000	4497.5000	997.0000	0.0000	0.0000
19.5312	-1489.5000	20.5000	-3332.0000	-6744.5000	-11480.5000	1658.0000	9122.0000	-9929.0000	-142.0000	5657.5000	-60.5000	-1571.0000	0.0000	-4317.0000	-2971.5000	-6987.5000	9996.5000	1681.0000	0.0000	-6920.0000	1926.5000	3581.0000	7935.5000	2537.5000	3514.5000	2714.5000	7364.5000	-708.0000	-1371.5000	-5209.0000	4512.0000	1012.0000	0.0000	0.0000
21.4844	-1491.5000	18.5000	-3334.5000	-6749.0000	-11482.5000	1659.0000	9117.0000	-9935.5000	-147.0000	5657.0000	-61.0000	-1575.5000	0.0000	-4326.0000	-2976.0000	-6989.5000	9995.5000	1680.5000	0.0000	-6924.5000	1924.5000	3580.0000	7930.5000	2565.5000	3511.0000	2712.0000	7358.5000	-668.5000	-1377.5000	-5211.0000	4524.0000	1015.5000	0.0000	0.0000
23.4375	-1485.0000	25.0000	-3332.0000	-6749.5000	-11479.0000	1666.5000	9117.5000	-9936.5000	-148.0000	5662.5000	-59.5000	-1578.5000	0.0000	-4333.0000	-2976.0000	-6985.0000	9993.0000	1674.0000	0.0000	-6931.0000	1924.5000	3580.0000	7922.0000	2591.5000	3505.0000	2708.5000	7350.5000	-671.0000	-1385.5000	-5223.0000	4534.5000	1017.5000	0.0000	0.0000
25.3906	-1475.0000	39.0000	-3323.0000	-6747.5000	-11469.0000	1682.0000	9122.0000	-9932.5000	-145.5000	5673.5000	-53.0000	-1578.0000	0.0000	-4336.5000	-2971.5000	-6973.5000	9993.0000	1672.0000	0.0000	-6937.5000	1926.0000	3581.5000	7913.0000	2585.5000	3502.5000	2708.0000	7343.5000	-704.0000	-1392.5000	-5240.5000	4533.0000	1005.5000	0.0000	0.0000
27.3438	-1465.0000	49.0000	-3316.0000	-6742.0000	-11461.0000	1694.0000	9128.0000	-9931.0000	-141.0000	5683.0000	-46.0000	-1575.5000	0.0000	-4338.0000	-2967.0000	-6967.5000	9995.5000	1672.5000	0.0000	-6940.5000	1930.0000	3585.0000	7909.5000	2563.0000	3500.5000	2708.5000	7338.5000	-717.5000	-1398.0000	-5257.5000	4523.5000	983.5000	0.0000	0.0000
29.2969	-1464.0000	51.0000	-3313.5000	-6741.0000	-11459.0000	1697.0000	9130.0000	-9930.5000	-139.5000	5684.5000	-45.5000	-1575.0000	0.0000	-4338.5000	-2966.5000	-6965.0000	9997.0000	1678.0000	0.0000	-6938.5000	1931.5000	3587.0000	7911.5000	2532.5000	3501.0000	2709.0000	7337.0000	-687.5000	-1397.5000	-5263.5000	4507.5000	970.5000	0.0000	0.0000
31.2500	-1468.5000	45.5000	-3316.5000	-6744.5000	-11465.0000	1690.0000	9125.5000	-9931.5000	-143.0000	5681.5000	-52.0000	-1576.0000	0.0000	-4338.0000	-2969.0000	-6969.0000	9999.0000	1686.5000	0.0000	-6935.0000	1933.0000	3589.0000	7914.5000	2540.0000	3502.5000	2710.5000	7341.0000	-665.0000	-1395.5000	-5258.5000	4508.0000	961.5000	0.0000	0.0000
33.2031	-1478.0000	35.5000	-3322.0000	-6746.0000	-11470.5000	1678.5000	9120.5000	-9933.0000	-145.0000	5671.5000	-57.5000	-1577.0000	0.0000	-4334.5000	-2970.0000	-6977.0000	9996.5000	1698.0000	0.0000	-6930.0000	1930.0000	3587.5000	7920.5000	2565.0000	3507.5000	2711.0000	7347.0000	-683.0000	-1388.0000	-5242.0000	4517.5000	968.5000	0.0000	0.0000
35.1562	-1486.5000	25.5000	-3329.0000	-6745.5000	-11477.5000	1667.0000	9117.0000	-9933.0000	-145.0000	5663.5000	-66.0000	-1575.5000	0.0000	-4327.0000	-2975.5000	-6984.0000	9993.5000	1706.0000	0.0000	-6927.5000	1924.5000	3581.5000	7925.0000	2565.0000	3509.5000	2710.0000	7354.0000	-681.5000	-1381.5000	-5222.5000	4534.0000	980.5000	0.0000	0.0000
37.1094	-1496.0000	14.0000	-3334.5000	-6750.5000	-11483.5000	1656.0000	9109.5000	-9934.0000	-148.5000	5652.5000	-73.5000	-1578.0000	0.0000	-4325.0000	-2980.0000	-6990.5000	9985.0000	1711.5000	0.0000	-6929.0000	1916.5000	3573.0000	7925.0000	2570.5000	3507.0000	2705.5000	7354.5000	-622.5000	-1381.5000	-5207.0000	4552.0000	1002.0000	0.0000	0.0000
39.0625	-1502.0000	8.5000	-3341.0000	-6757.0000	-11491.0000	1646.5000	9103.5000	-9938.5000	-154.5000	5646.0000	-81.0000	-1584.0000	0.0000	-4328.5000	-2987.0000	-6997.5000	9980.0000	1714.0000	0.0000	-6933.5000	1911.5000	3568.5000	7921.5000	2583.5000	3502.0000	2699.5000	7350.0000	-547.0000	-1387.0000	-5202.0000	4578.0000	1018.0000	0.0000	0.0000
41.0156	-1507.0000	7.0000	-3344.0000	-6760.0000	-11493.5000	1646.5000	9101.0000	-9943.0000	-158.0000	5642.0000	-85.0000	-1588.0000	0.0000	-4337.0000	-2990.0000	-6997.5000	9978.5000	1718.5000	0.0000	-6935.5000	1909.5000	3568.0000	7917.5000	2588.5000	3497.0000	2697.0000	7344.0000	-505.0000	-1390.0000	-5205.0000	4592.5000	1031.5000	0.0000	0.0000
42.9688	-1502.0000	10.5000	-3341.5000	-6762.5000	-11491.0000	1653.0000	9101.0000	-9946.5000	-160.5000	5648.0000	-84.5000	-1592.0000	0.0000	-4345.0000	-2992.0000	-6995.5000	9978.5000	1722.5000	0.0000	-6940.5000	1913.0000	3570.0000	7912.5000	2597.0000	3494.5000	2694.5000	7338.5000	-500.5000	-1399.0000	-5216.5000	4601.5000	1034.5000	0.0000	0.0000
44.9219	-1492.0000	22.0000	-3336.0000	-6761.0000	-11484.5000	1665.0000	9105.0000	-9946.5000	-160.0000	5658.0000	-77.0000	-1594.0000	0.0000	-4352.0000	-2990.0000	-6990.0000	9979.0000	1723.5000	0.0000	-6949.0000	1913.5000	3570.5000	7901.5000	2602.5000	3490.5000	2692.5000	7330.0000	-506.5000	-1407.5000	-5239.5000	4597.5000	1034.0000	0.0000	0.0000
46.8750	-1483.0000	33.0000	-3329.0000	-6758.0000	-11476.5000	1676.5000	9110.5000	-9944.5000	-156.5000	5668.5000	-69.5000	-1591.5000	0.0000	-4356.0000	-2985.5000	-6980.5000	9978.5000	1730.0000	0.0000	-6954.0000	1914.0000	3572.0000	7894.5000	2571.5000	3487.0000	2692.0000	7322.0000	-486.5000	-1414.0000	-5263.5000	4578.5000	1021.5000	0.0000	0.0000
48.8281	-1479.0000	36.5000	-3326.5000	-6757.0000	-11471.5000	1684.0000	9112.5000	-9943.0000	-154.5000	5673.5000	-68.5000	-1591.0000	0.0000	-4356.5000	-2982.0000	-6976.0000	9979.0000	1741.0000	0.0000	-6953.5000	1915.5000	3573.0000	7893.0000	2538.5000	3486.0000	2692.5000	7320.0000	-455.5000	-1415.0000	-5280.0000	4556.0000	1008.5000	0.0000	0.0000
50.7812	-1484.5000	33.0000	-3329.0000	-6759.0000	-11476.5000	1678.5000	9109.0000	-9945.5000	-155.5000	5667.5000	-73.5000	-1592.0000	0.0000	-4358.0000	-2985.5000	-6980.0000	9979.5000	1753.5000	0.0000	-6952.5000	1915.5000	3572.5000	7897.5000	2539.5000	3486.5000	2692.0000	7322.5000	-413.0000	-1413.0000	-5282.0000	4547.5000	1005.0000	0.0000	0.0000
52.7344	-1492.5000	23.0000	-3335.5000	-6761.0000	-11483.5000	1666.0000	9103.5000	-9947.5000	-159.0000	5659.0000	-80.5000	-1593.0000	0.0000	-4354.5000	-2990.0000	-6988.0000	9979.5000	1766.0000	0.0000	-6949.0000	1913.5000	3570.0000	7900.5000	2568.5000	3489.0000	2691.5000	7327.0000	-402.0000	-1408.5000	-5273.5000	4548.5000	1013.0000	0.0000	0.0000
54.6875	-1501.5000	12.5000	-3340.5000	-6762.5000	-11490.5000	1654.0000	9099.0000	-9945.5000	-160.0000	5649.0000	-88.5000	-1594.0000	0.0000	-4349.0000	-2992.5000	-6997.0000	9977.5000	1781.0000	0.0000	-6943.0000	1911.0000	3567.0000	7908.0000	2588.0000	3494.5000	2692.0000	7336.5000	-428.0000	-1402.0000	-5256.5000	4554.0000	1027.0000	0.0000	0.0000
56.6406	-1510.0000	4.0000	-3346.0000	-6763.0000	-11496.5000	1643.5000	9092.5000	-9946.5000	-163.5000	5641.5000	-96.0000	-1594.0000	0.0000	-4344.0000	-2996.0000	-7005.0000	9972.5000	1792.0000	0.0000	-6942.5000	1905.5000	3562.5000	7910.0000	2580.0000	3494.5000	2691.0000	7341.0000	-416.0000	-1397.5000	-5237.5000	4578.0000	1046.0000	0.0000	0.0000
58.5938	-1515.5000	-2.0000	-3349.0000	-6766.5000	-11501.0000	1637.0000	9090.5000	-9947.5000	-164.5000	5635.5000	-101.0000	-1596.5000	0.0000	-4344.5000	-2999.5000	-7008.5000	9967.5000	1802.0000	0.0000	-6944.5000	1899.5000	3557.0000	7908.5000	2559.5000	3491.0000	2686.0000	7339.0000	-372.0000	-1398.5000	-5230.5000	4598.5000	1069.0000	0.0000	0.0000
60.5469	-1518.5000	-3.5000	-3352.0000	-6770.5000	-11504.5000	1633.5000	9086.0000	-9952.5000	-169.0000	5632.5000	-104.0000	-1600.5000	0.0000	-4350.0000	-3003.5000	-7013.0000	9965.0000	1812.0000	0.0000	-6948.5000	1897.0000	3555.0000	7905.0000	2566.0000	3486.0000	2682.0000	7332.5000	-312.5000	-1405.0000	-5234.0000	4609.5000	1079.5000	0.0000	0.0000
62.5000	-1517.0000	-2.5000	-3354.5000	-6773.5000	-11504.0000	1635.5000	9084.5000	-9957.0000	-173.0000	5634.0000	-105.5000	-1608.0000	0.0000	-4359.5000	-3007.0000	-7012.5000	9964.0000	1824.5000	0.0000	-6953.5000	1899.0000	3556.5000	7898.0000	2588.0000	3481.0000	2680.0000	7324.0000	-284.5000	-1411.5000	-5249.0000	4617.5000	1086.5000	0.0000	0.0000
64.4531	-1510.5000	5.5000	-3350.0000	-6776.0000	-11499.0000	1645.0000	9087.0000	-9958.0000	-173.5000	5641.0000	-102.5000	-1609.0000	0.0000	-4368.0000	-3007.0000	-7006.5000	9964.0000	1833.0000	0.0000	-6960.0000	1900.5000	3557.5000	7889.5000	2613.5000	3476.5000	2678.5000	7316.0000	-314.0000	-1420.0000	-5267.5000	4622.0000	1092.5000	0.0000	0.0000
66.4062	-1500.0000	18.0000	-3341.0000	-6770.5000	-11490.0000	1660.0000	9093.5000	-9955.0000	-169.5000	5654.0000	-93.5000	-1606.5000	0.0000	-4371.0000	-3001.5000	-6997.5000	9966.0000	1840.0000	0.0000	-6963.5000	1904.5000	3561.0000	7884.5000	2613.0000	3476.0000	2679.5000	7311.0000	-370.5000	-1425.0000	-5291.5000	4609.5000	1076.5000	0.0000	0.0000
68.3594	-1491.0000	28.0000	-3334.0000	-6764.5000	-11481.5000	1672.0000	9101.0000	-9950.5000	-164.0000	5663.0000	-86.5000	-1603.0000	0.0000	-4370.0000	-2995.5000	-6989.0000	9967.0000	1850.0000	0.0000	-6964.5000	1906.0000	3565.0000	7883.5000	2590.0000	3476.5000	2681.5000	7309.5000	-420.5000	-1425.5000	-5308.5000	4593.0000	1063.5000	0.0000	0.0000
70.3125	-1490.5000	28.0000	-3332.0000	-6763.5000	-11481.0000	1671.5000	9100.5000	-9948.0000	-162.5000	5664.5000	-85.5000	-1600.5000	0.0000	-4368.0000	-2994.0000	-6989.0000	9970.0000	1857.0000	0.0000	-6963.0000	1907.5000	3566.5000	7885.5000	2570.5000	3476.5000	2681.5000	7312.0000	-422.5000	-1423.0000	-5313.0000	4583.5000	1061.5000	0.0000	0.0000
72.2656	-1497.0000	20.0000	-3338.5000	-6766.0000	-11486.5000	1662.5000	9097.0000	-9949.5000	-163.5000	5656.0000	-91.5000	-1602.5000	0.0000	-4364.5000	-2997.5000	-6995.5000	9970.0000	1864.0000	0.0000	-6957.0000	1908.5000	3567.5000	7891.5000	2589.0000	3479.0000	2683.0000	7318.0000	-416.0000	-1419.0000	-5307.5000	4583.0000	1064.5000	0.0000	0.0000
74.2188	-1510.0000	6.5000	-3346.5000	-6771.0000	-11497.0000	1647.0000	9089.5000	-9953.0000	-168.0000	5643.5000	-101.5000	-1605.0000	0.0000	-4362.5000	-3003.5000	-7006.0000	9969.0000	1867.5000	0.0000	-6951.5000	1904.5000	3564.0000	7897.0000	2659.0000	3483.0000	2681.5000	7323.0000	-417.0000	-1413.0000	-5291.5000	4588.5000	1073.5000	0.0000	0.0000
76.1719	-1519.5000	-4.5000	-3353.0000	-6772.5000	-11504.5000	1633.5000	9083.5000	-9954.0000	-171.0000	5632.5000	-110.5000	-1605.5000	0.0000	-4360.0000	-3007.5000	-7016.5000	9964.0000	1863.0000	0.0000	-6951.5000	1898.5000	3559.5000	7900.5000	2713.0000	3485.0000	2681.5000	7330.0000	-449.0000	-1405.5000	-5268.5000	4612.0000	1098.0000	0.0000	0.0000
78.1250	-1526.0000	-11.0000	-3357.0000	-6774.5000	-11510.5000	1625.5000	9079.5000	-9956.0000	-173.0000	5627.0000	-115.5000	-1606.5000	0.0000	-4357.5000	-3010.5000	-7022.5000	9957.0000	1852.0000	0.0000	-6953.5000	1893.0000	3552.0000	7897.5000	2775.5000	3482.0000	2677.5000	7329.0000	-447.5000	-1408.5000	-5259.5000	4634.5000	1107.5000	0.0000	0.0000
80.0781	-1530.0000	-15.5000	-3362.0000	-6780.5000	-11514.5000	1621.0000	9073.5000	-9961.0000	-176.0000	5622.5000	-120.5000	-1611.5000	0.0000	-4363.5000	-3015.5000	-7026.5000	9953.5000	1834.0000	0.0000	-6958.5000	1889.5000	3549.0000	7893.5000	2857.0000	3477.0000	2671.5000	7321.5000	-409.0000	-1415.0000	-5264.5000	4647.5000	1114.0000	0.0000	0.0000
82.0312	-1528.5000	-14.0000	-3363.0000	-6782.5000	-11513.0000	1623.5000	9072.0000	-9966.0000	-182.0000	5622.5000	-122.5000	-1617.0000	0.0000	-4371.5000	-3018.5000	-7027.0000	9952.5000	1814.0000	0.0000	-6962.5000	1889.0000	3550.0000	7888.0000	2920.0000	3472.0000	2668.0000	7315.0000	-391.5000	-1421.5000	-5273.5000	4655.5000	1110.5000	0.0000	0.0000
83.9844	-1522.0000	-7.0000	-3360.0000	-6784.0000	-11508.0000	1634.0000	9074.0000	-9965.5000	-181.5000	5629.0000	-117.0000	-1619.5000	0.0000	-4378.5000	-3017.5000	-7022.5000	9951.5000	1792.5000	0.0000	-6967.5000	1892.0000	3553.0000	7882.0000	2971.5000	3468.0000	2666.5000	7307.5000	-412.0000	-1429.0000	-5289.0000	4659.5000	1100.0000	0.0000	0.0000
85.9375	-1509.0000	6.5000	-3349.5000	-6776.5000	-11497.0000	1650.5000	9082.0000	-9961.0000	-177.5000	5644.0000	-106.0000	-1615.5000	0.0000	-4381.0000	-3011.5000	-7011.0000	9957.0000	1776.0000	0.0000	-6970.0000	1897.5000	3558.5000	7877.0000	2970.0000	3467.0000	2670.0000	7302.5000	-476.0000	-1431.0000	-5312.0000	4650.0000	1076.5000	0.0000	0.0000
87.8906	-1498.0000	19.0000	-3338.5000	-6769.5000	-11487.0000	1663.5000	9091.0000	-9955.5000	-170.5000	5656.0000	-95.0000	-1610.5000	0.0000	-4377.5000	-3004.0000	-7000.5000	9961.5000	1769.0000	0.0000	-6970.5000	1901.5000	3562.5000	7877.0000	2934.5000	3469.0000	2674.0000	7302.0000	-536.0000	-1431.0000	-5330.5000	4640.0000	1054.0000	0.0000	0.0000
89.8438	-1495.5000	22.0000	-3337.0000	-6767.5000	-11486.0000	1665.0000	9091.0000	-9952.0000	-168.0000	5658.5000	-93.0000	-1608.0000	0.0000	-4375.5000	-3001.5000	-6999.5000	9964.0000	1769.5000	0.0000	-6967.5000	1904.5000	3566.5000	7880.0000	2898.5000	3469.5000	2675.0000	7303.0000	-513.5000	-1431.5000	-5338.5000	4630.0000	1038.0000	0.0000	0.0000
91.7969	-1500.5000	17.5000	-3339.5000	-6768.5000	-11488.0000	1659.5000	9088.5000	-9952.0000	-168.5000	5653.5000	-97.5000	-1608.0000	0.0000	-4372.5000	-3003.0000	-7002.5000	9966.5000	1785.0000	0.0000	-6960.0000	1908.5000	3570.5000	7889.5000	2889.5000	3476.0000	2678.0000	7311.5000	-541.5000	-1423.0000	-5330.5000	4633.0000	1028.0000	0.0000	0.0000
93.7500	-1509.5000	9.5000	-3342.0000	-6769.0000	-11492.5000	1648.0000	9085.0000	-9950.5000	-168.0000	5648.0000	-104.0000	-1606.5000	0.0000	-4366.0000	-3004.5000	-7009.5000	9969.0000	1804.5000	0.0000	-6953.5000	1907.5000	3569.5000	7896.5000	2912.0000	3482.5000	2682.0000	7320.5000	-607.0000	-1413.5000	-5312.5000	4645.0000	1030.5000	0.0000	0.0000
95.7031	-1517.5000	-2.0000	-3346.0000	-6769.0000	-11498.5000	1638.0000	9082.5000	-9949.5000	-168.0000	5638.0000	-110.0000	-1606.0000	0.0000	-4358.5000	-3006.5000	-7016.0000	9961.5000	1834.0000	0.0000	-6952.0000	1900.0000	3561.5000	7899.0000	2916.5000	3483.0000	2679.5000	7326.0000	-635.5000	-1409.0000	-5292.0000	4668.5000	1047.0000	0.0000	0.0000
97.6562	-1524.5000	-10.0000	-3354.0000	-6771.5000	-11504.5000	1626.5000	9076.0000	-9953.5000	-171.5000	5629.5000	-116.5000	-1608.0000	0.0000	-4357.5000	-3010.0000	-7025.0000	9956.5000	1866.5000	0.0000	-6953.5000	1892.0000	3554.5000	7898.0000	2928.5000	3481.5000	2674.5000	7326.5000	-598.5000	-1409.0000	-5279.0000	4685.0000	1050.0000	0.0000	0.0000
99.6094	-1530.5000	-16.0000	-3360.0000	-6778.0000	-11511.5000	1620.5000	9070.0000	-9958.5000	-177.5000	5623.5000	-123.0000	-1614.0000	0.0000	-4363.5000	-3016.5000	-7033.0000	9953.5000	1903.0000	0.0000	-6954.5000	1889.5000	3550.5000	7896.0000	2965.0000	3477.0000	2669.5000	7322.0000	-568.5000	-1414.5000	-5280.0000	4705.0000	1055.5000	0.0000	0.0000
101.5625	-1531.5000	-17.5000	-3361.5000	-6783.5000	-11512.0000	1620.5000	9065.5000	-9963.5000	-181.5000	5623.0000	-125.5000	-1618.5000	0.0000	-4371.5000	-3019.5000	-7034.0000	9950.0000	1940.5000	0.0000	-6960.0000	1887.5000	3550.0000	7890.0000	3002.0000	3473.0000	2667.0000	7316.0000	-571.0000	-1420.5000	-5288.0000	4717.5000	1057.0000	0.0000	0.0000
103.5156	-1521.5000	-6.0000	-3354.5000	-6779.0000	-11505.0000	1633.5000	9072.0000	-9961.0000	-178.5000	5633.0000	-116.5000	-1616.5000	0.0000	-4374.0000	-3014.5000	-7026.0000	9953.5000	1974.0000	0.0000	-6962.5000	1891.5000	3553.5000	7885.5000	3012.5000	3471.5000	2669.5000	7312.5000	-697.5000	-1423.5000	-5302.0000	4726.5000	1048.5000	0.0000	0.0000
105.4688	-1506.0000	10.0000	-3342.0000	-6771.5000	-11491.5000	1651.0000	9082.5000	-9954.5000	-172.0000	5648.0000	-104.5000	-1613.5000	0.0000	-4376.0000	-3007.5000	-7014.0000	9957.0000	1999.5000	0.0000	-6966.0000	1897.0000	3556.0000	7879.0000	2981.0000	3470.5000	2671.5000	7306.0000	-780.5000	-1428.0000	-5324.5000	4715.5000	1028.5000	0.0000	0.0000
107.4219	-1497.0000	21.0000	-3333.5000	-6766.0000	-11484.0000	1662.0000	9090.0000	-9951.0000	-168.5000	5659.0000	-96.0000	-1608.0000	0.0000	-4377.5000	-3000.5000	-7004.5000	9960.5000	2019.5000	0.0000	-6967.0000	1901.5000	3561.0000	7876.5000	2940.0000	3470.0000	2672.0000	7301.5000	-803.5000	-1430.0000	-5347.0000	4701.0000	998.5000	0.0000	0.0000
109.3750	-1497.0000	22.5000	-3334.5000	-6767.0000	-11482.5000	1665.0000	9089.0000	-9952.0000	-167.5000	5658.5000	-96.5000	-1610.5000	0.0000	-4378.5000	-3001.5000	-7004.0000	9964.0000	2040.0000	0.0000	-6963.5000	1905.5000	3563.5000	7878.5000	2929.5000	3471.0000	2675.0000	7303.5000	-788.0000	-1430.0000	-5355.0000	4687.5000	975.0000	0.0000	0.0000
111.3281	-1499.5000	18.5000	-3335.5000	-6766.5000	-11484.0000	1659.0000	9088.5000	-9952.5000	-169.5000	5655.5000	-99.0000	-1608.5000	0.0000	-4376.5000	-3001.5000	-7007.5000	9966.5000	2063.0000	0.0000	-6958.5000	1907.5000	3564.5000	7885.5000	2948.0000	3475.0000	2677.5000	7309.5000	-821.0000	-1423.5000	-5352.5000	4681.0000	957.5000	0.0000	0.0000
113.2812	-1505.0000	11.5000	-3338.0000	-6765.5000	-11488.0000	1652.5000	9087.0000	-9949.0000	-166.5000	5650.5000	-103.0000	-1606.5000	0.0000	-4371.5000	-3001.0000	-7012.0000	9963.5000	2086.0000	0.0000	-6953.5000	1900.5000	3559.0000	7889.5000	2961.5000	3478.0000	2679.0000	7317.0000	-862.5000	-1418.0000	-5339.0000	4687.5000	957.0000	0.0000	0.0000
115.2344	-1511.5000	3.5000	-3342.5000	-6764.5000	-11492.0000	1641.5000	9083.0000	-9947.0000	-163.5000	5643.0000	-108.5000	-1603.0000	0.0000	-4361.5000	-3002.5000	-7018.5000	9961.0000	2098.0000	0.0000	-6950.5000	1897.0000	3552.5000	7896.0000	2953.5000	3480.5000	2678.0000	7324.5000	-882.0000	-1411.0000	-5320.0000	4699.0000	968.0000	0.0000	0.0000
117.1875	-1523.5000	-7.5000	-3350.0000	-6770.5000	-11501.0000	1627.5000	9075.0000	-9951.0000	-169.0000	5632.5000	-120.0000	-1607.5000	0.0000	-4361.5000	-3009.5000	-7028.5000	9955.5000	2096.0000	0.0000	-6951.0000	1891.0000	3546.5000	7897.5000	2963.5000	3479.5000	2672.5000	7324.5000	-785.0000	-1411.0000	-5309.0000	4711.0000	982.5000	0.0000	0.0000
119.1406	-1531.0000	-14.5000	-3355.5000	-6774.5000	-11506.0000	1620.0000	9069.0000	-9954.5000	-175.0000	5627.0000	-124.0000	-1611.5000	0.0000	-4366.5000	-3014.0000	-7035.0000	9955.0000	2075.0000	0.0000	-6952.0000	1888.5000	3542.5000	7898.0000	2982.0000	3477.0000	2671.5000	7321.5000	-734.5000	-1410.5000	-5305.0000	4737.0000	1000.5000	0.0000	0.0000
121.0938	-1528.0000	-13.0000	-3354.0000	-6774.5000	-11504.5000	1624.0000	9070.5000	-9955.5000	-175.0000	5629.0000	-122.5000	-1613.5000	0.0000	-4371.5000	-3013.0000	-7034.0000	9956.0000	2031.5000	0.0000	-6952.0000	1890.5000	3544.0000	7895.5000	3005.0000	3476.5000	2671.0000	7320.5000	-751.0000	-1412.5000	-5311.5000	4753.0000	1018.5000	0.0000	0.0000
123.0469	-1517.5000	-2.0000	-3347.0000	-6770.0000	-11497.0000	1635.0000	9075.5000	-9953.0000	-170.5000	5637.5000	-116.5000	-1610.0000	0.0000	-4373.5000	-3009.0000	-7025.5000	9957.0000	1969.5000	0.0000	-6956.5000	1893.0000	3545.0000	7889.0000	2986.5000	3474.5000	2671.5000	7316.0000	-751.0000	-1417.5000	-5325.0000	4763.0000	1029.0000	0.0000	0.0000
125.0000	-1508.5000	8.5000	-3340.5000	-6768.5000	-11489.0000	1647.5000	9079.5000	-9953.0000	-169.0000	5648.5000	-110.0000	-1611.0000	0.0000	-4379.5000	-3007.0000	-7018.0000	9954.5000	1898.0000	0.0000	-6964.0000	1893.0000	3545.0000	7878.0000	2954.0000	3469.5000	2669.0000	7305.0000	-644.5000	-1426.0000	-5353.0000	4767.0000	1025.5000	0.0000	0.0000
126.9531	-1503.0000	14.5000	-3337.5000	-6768.5000	-11485.0000	1655.0000	9082.0000	-9955.0000	-171.0000	5654.0000	-107.0000	-1614.5000	0.0000	-4387.0000	-3006.5000	-7015.5000	9956.5000	1835.0000	0.0000	-6966.5000	1896.0000	3548.0000	7873.0000	2941.5000	3464.0000	2667.0000	7298.5000	-529.0000	-1432.0000	-5380.5000	4759.5000	1013.0000	0.0000	0.0000
128.9062	-1505.0000	13.0000	-3340.0000	-6774.0000	-11487.0000	1654.5000	9079.0000	-9958.0000	-175.0000	5652.0000	-109.5000	-1618.5000	0.0000	-4394.0000	-3008.0000	-7018.0000	9956.0000	1782.5000	0.0000	-6967.0000	1894.5000	3548.5000	7870.5000	2972.0000	3463.0000	2665.5000	7295.0000	-453.5000	-1434.5000	-5394.5000	4789.5000	1001.0000	0.0000	0.0000
130.8594	-1511.5000	8.0000	-3344.5000	-6778.0000	-11492.0000	1646.5000	9073.5000	-9960.0000	-178.5000	5647.0000	-117.0000	-1622.0000	0.0000	-4397.0000	-3012.5000	-7024.5000	9951.0000	1737.5000	0.0000	-6972.5000	1889.5000	3542.5000	7867.0000	3002.5000	3459.5000	2663.5000	7293.0000	-422.5000	-1436.5000	-5403.0000	4900.0000	989.5000	0.0000	0.0000
132.8125	-1516.5000	0.0000	-3348.0000	-6777.5000	-11495.5000	1638.5000	9070.0000	-9961.0000	-179.0000	5640.0000	-121.0000	-1621.0000	0.0000	-4392.0000	-3013.5000	-7028.5000	9945.5000	1697.5000	0.0000	-6973.0000	1883.5000	3537.0000	7869.5000	3002.5000	3459.5000	2659.5000	7295.5000	-408.0000	-1431.5000	-5402.5000	4982.0000	987.5000	0.0000	0.0000
134.7656	-1527.5000	-11.5000	-3353.0000	-6780.0000	-11503.5000	1625.0000	9064.5000	-9961.5000	-181.5000	5631.0000	-131.0000	-1621.0000	0.0000	-4389.0000	-3017.0000	-7037.5000	9941.0000	1689.5000	0.0000	-6969.5000	1877.5000	3531.0000	7874.0000	3004.0000	3459.0000	2658.5000	7296.5000	-317.0000	-1428.0000	-5397.0000	4987.5000	986.0000	0.0000	0.0000
136.7188	-1539.5000	-26.0000	-3364.0000	-6787.0000	-11514.0000	1609.5000	9057.0000	-9967.0000	-188.0000	5618.0000	-142.5000	-1626.0000	0.0000	-4392.0000	-3026.0000	-7050.0000	9938.0000	1650.0000	0.0000	-6969.0000	1871.0000	3525.0000	7875.5000	3036.0000	3456.5000	2653.5000	7298.5000	-201.0000	-1428.0000	-5390.5000	5034.5000	987.5000	0.0000	0.0000
138.6719	-1553.0000	-39.0000	-3376.0000	-6798.0000	-11525.5000	1594.0000	9044.0000	-9977.0000	-199.0000	5603.5000	-157.5000	-1638.0000	0.0000	-4401.0000	-3037.0000	-7064.0000	9930.5000	1658.0000	0.0000	-6974.0000	1862.5000	3516.5000	7869.5000	3114.0000	3449.5000	2645.0000	7294.0000	-125.0000	-1433.5000	-5390.0000	5104.0000	1001.5000	0.0000	0.0000
140.6250	-1565.5000	-50.5000	-3389.0000	-6811.5000	-11540.0000	1583.0000	9030.5000	-9990.5000	-213.0000	5590.0000	-171.0000	-1651.5000	0.0000	-4417.0000	-3049.0000	-7077.0000	9914.0000	1644.5000	0.0000	-6990.5000	1847.0000	3503.5000	7854.0000	3212.0000	3437.5000	2631.5000	7282.0000	86.5000	-1448.5000	-5397.5000	5145.0000	1001.0000	0.0000	0.0000
142.5781	-1563.0000	-48.0000	-3390.0000	-6814.5000	-11538.5000	1585.5000	9028.0000	-9996.0000	-216.5000	5593.0000	-174.0000	-1657.0000	0.0000	-4425.5000	-3053.0000	-7078.5000	9905.5000	1632.5000	0.0000	-7002.5000	1842.0000	3497.0000	7840.0000	3242.0000	3428.0000	2622.0000	7269.5000	180.5000	-1461.5000	-5409.0000	5164.5000	997.5000	0.0000	0.0000
144.5312	-1555.5000	-38.5000	-3384.0000	-6814.0000	-11531.0000	1598.5000	9032.5000	-9995.5000	-215.5000	5601.0000	-169.0000	-1659.0000	0.0000	-4432.5000	-3049.5000	-7071.5000	9904.0000	1618.0000	0.0000	-7009.5000	1843.5000	3499.5000	7832.5000	3198.5000	3421.5000	2620.0000	7259.0000	218.0000	-1467.5000	-5419.5000	5177.0000	988.5000	0.0000	0.0000
146.4844	-1561.0000	-42.5000	-3392.0000	-6825.5000	-11536.0000	1597.0000	9024.0000	-10011.0000	-228.5000	5596.0000	-178.5000	-1674.0000	0.0000	-4452.0000	-3060.0000	-7078.5000	9896.0000	1590.0000	0.0000	-7024.0000	1836.0000	3490.0000	7816.0000	3224.0000	3406.5000	2607.0000	7237.5000	516.0000	-1485.0000	-5445.0000	5205.0000	951.5000	0.0000	0.0000
148.4375	-1620.0000	-101.5000	-3453.5000	-6889.5000	-11599.0000	1535.5000	8961.5000	-10075.0000	-293.5000	5537.5000	-241.0000	-1738.5000	0.0000	-4518.5000	-3122.5000	-7141.0000	9836.5000	1525.0000	0.0000	-7088.5000	1775.5000	3428.0000	7750.0000	3156.0000	3343.5000	2543.0000	7169.5000	2372.5000	-1549.5000	-5520.5000	5166.5000	852.0000	0.0000	0.0000
150.3906	-1640.0000	-121.0000	-3471.0000	-6907.0000	-11616.0000	1517.5000	8941.5000	-10092.0000	-311.5000	5517.5000	-262.0000	-1757.0000	0.0000	-4536.0000	-3140.0000	-7159.5000	9814.5000	1498.0000	0.0000	-7108.0000	1753.5000	3409.0000	7730.5000	3171.5000	3327.5000	2525.0000	7151.5000	2899.5000	-1564.5000	-5539.5000	5173.5000	795.5000	0.0000	0.0000
152.3438	-1588.0000	-69.5000	-3416.0000	-6849.5000	-11562.0000	1567.5000	8996.0000	-10033.5000	-253.0000	5571.5000	-211.0000	-1695.5000	0.0000	-4474.5000	-3082.5000	-7106.0000	9869.5000	1551.0000	0.0000	-7048.0000	1806.5000	3461.5000	7790.5000	3149.5000	3384.0000	2580.0000	7213.5000	1386.5000	-1505.0000	-5479.0000	5218.5000	827.5000	0.0000	0.0000
154.2969	-1571.5000	-55.5000	-3396.0000	-6825.0000	-11542.0000	1580.5000	9018.0000	-10008.5000	-228.5000	5588.5000	-193.5000	-1669.0000	0.0000	-4445.5000	-3060.5000	-7088.5000	9892.5000	1573.0000	0.0000	-7020.0000	1827.5000	3483.0000	7821.5000	3080.0000	3411.5000	2604.0000	7246.0000	840.5000	-1475.5000	-5450.0000	5231.5000	832.0000	0.0000	0.0000
156.2500	-1564.0000	-48.5000	-3385.5000	-6810.5000	-11534.5000	1585.5000	9030.0000	-9992.5000	-214.0000	5595.5000	-186.0000	-1655.0000	0.0000	-4427.0000	-3048.0000	-7080.5000	9909.0000	1595.0000	0.0000	-6996.0000	1841.5000	3499.5000	7847.0000	2949.0000	3429.5000	2622.0000	7269.5000	534.5000	-1452.5000	-5426.5000	5257.5000	856.5000	0.0000	0.0000
158.2031	-1545.0000	-30.0000	-3365.0000	-6789.5000	-11515.0000	1602.5000	9050.5000	-9970.0000	-193.0000	5613.0000	-170.0000	-1633.5000	0.0000	-4405.5000	-3027.5000	-7061.5000	9932.0000	1624.0000	0.0000	-6969.0000	1865.0000	3522.0000	7873.5000	3014.0000	3455.0000	2645.5000	7301.5000	189.0000	-1425.0000	-5404.0000	4922.5000	894.5000	0.0000	0.0000
160.1562	-1445.0000	70.5000	-3264.0000	-6688.5000	-11414.0000	1704.5000	9150.0000	-9870.0000	-92.0000	5715.0000	-72.5000	-1531.5000	0.0000	-4306.5000	-2925.5000	-6962.0000	10031.5000	1718.5000	0.0000	-6870.0000	1964.0000	3620.5000	7971.0000	3110.5000	3555.0000	2745.5000	7400.5000	-82.0000	-1325.5000	-5293.0000	2377.5000	1008.0000	0.0000	0.0000
162.1094	-1421.5000	93.5000	-3243.0000	-6670.0000	-11391.0000	1729.0000	9170.0000	-9853.0000	-73.5000	5738.0000	-54.0000	-1516.5000	0.0000	-4292.0000	-2906.0000	-6939.0000	10046.0000	1730.0000	0.0000	-6861.5000	1977.5000	3636.5000	7979.5000	3065.0000	3568.5000	2760.0000	7403.0000	-220.0000	-1313.0000	-5265.5000	2087.0000	1036.5000	0.0000	0.0000
164.0625	-1442.0000	75.0000	-3268.0000	-6699.5000	-11414.0000	1712.0000	9143.5000	-9883.0000	-102.5000	5717.5000	-79.0000	-1547.0000	0.0000	-4326.5000	-2933.5000	-6962.0000	10016.0000	1705.5000	0.0000	-6894.5000	1950.5000	3610.0000	7942.0000	2984.5000	3534.0000	2728.5000	7363.0000	-26.0000	-1349.5000	-5293.5000	2731.0000	1008.0000	0.0000	0.0000
166.0156	-1469.0000	49.0000	-3298.0000	-6733.0000	-11443.5000	1688.5000	9110.5000	-9920.5000	-139.0000	5690.5000	-112.5000	-1586.0000	0.0000	-4369.5000	-2968.0000	-6992.0000	9986.0000	1677.5000	0.0000	-6930.0000	1921.5000	3580.5000	7900.5000	2944.0000	3497.0000	2693.5000	7317.5000	329.0000	-1388.5000	-5339.5000	3368.0000	937.0000	0.0000	0.0000
167.9688	-1446.0000	72.0000	-3276.5000	-6715.5000	-11421.5000	1711.0000	9129.5000	-9902.0000	-121.0000	5714.0000	-96.0000	-1568.5000	0.0000	-4354.5000	-2948.5000	-6970.5000	10005.5000	1714.0000	0.0000	-6912.0000	1942.5000	3600.5000	7914.5000	2969.5000	3515.0000	2712.5000	7331.5000	411.5000	-1372.0000	-6064.5000	3472.5000	952.5000	0.0000	0.0000
169.9219	-1341.5000	175.0000	-3173.5000	-6611.0000	-11318.0000	1813.0000	9233.5000	-9798.5000	-15.5000	5818.0000	3.0000	-1463.0000	0.0000	-4250.0000	-2843.5000	-6866.5000	10107.5000	1827.0000	0.0000	-6810.5000	2045.0000	3704.0000	8017.5000	3040.0000	3618.5000	2815.0000	7434.5000	-1662.0000	-1269.5000	-6774.0000	3476.5000	1068.5000	0.0000	0.0000
171.8750	-1125.5000	391.0000	-2956.0000	-6390.5000	-11099.0000	2029.5000	9453.0000	-9577.5000	205.5000	6037.0000	216.5000	-1240.0000	0.0000	-4029.0000	-2623.0000	-6648.5000	10326.0000	1975.5000	0.0000	-6585.0000	2261.0000	3920.5000	8240.0000	3230.5000	3840.0000	3034.5000	7656.5000	-8179.5000	-1046.0000	-6235.5000	3638.0000	1280.0000	0.0000	0.0000
173.8281	-1182.0000	332.5000	-3010.0000	-6440.5000	-11154.5000	1972.5000	9399.0000	-9625.0000	157.0000	5979.0000	157.0000	-1287.5000	0.0000	-4074.5000	-2675.0000	-6704.0000	10274.5000	1901.5000	0.0000	-6629.5000	2208.0000	3868.0000	8196.5000	4663.5000	3793.5000	2984.0000	7611.5000	-8420.5000	-1090.5000	-6042.5000	3564.5000	1274.5000	0.0000	0.0000
175.7812	-1071.0000	442.5000	-2894.0000	-6321.0000	-11040.0000	2081.0000	9515.5000	-9504.0000	278.0000	6092.0000	268.0000	-1166.0000	0.0000	-3949.5000	-2557.5000	-6589.0000	10389.5000	2015.0000	0.0000	-6511.0000	2321.0000	3982.5000	8320.5000	1119.0000	3915.5000	3107.5000	7739.5000	-8100.5000	-963.0000	-6028.5000	3683.0000	1427.5000	0.0000	0.0000
177.7344	-1039.0000	473.5000	-2859.5000	-6283.0000	-11005.0000	2112.0000	9551.0000	-9465.5000	316.5000	6123.0000	303.5000	-1127.0000	0.0000	-3910.0000	-2522.0000	-6556.0000	10426.5000	2062.0000	0.0000	-6472.0000	2354.5000	4016.5000	8364.0000	4.0000	3955.0000	3145.0000	7781.5000	-7836.5000	-922.5000	-6176.5000	3716.5000	1469.5000	0.0000	0.0000
179.6875	-1111.5000	400.5000	-2932.0000	-6355.5000	-11079.5000	2036.5000	9477.5000	-9537.0000	242.5000	6049.5000	229.5000	-1199.0000	0.0000	-3983.0000	-2596.0000	-6630.5000	10353.5000	1999.5000	0.0000	-6545.0000	2280.5000	3943.0000	8291.0000	214.5000	3880.5000	3070.5000	7709.5000	-5930.0000	-996.5000	-6322.0000	3639.5000	1399.5000	0.0000	0.0000
181.6406	-1212.5000	300.5000	-3033.5000	-6462.0000	-11180.5000	1938.0000	9376.0000	-9641.5000	137.0000	5948.5000	126.5000	-1305.0000	0.0000	-4090.5000	-2697.5000	-6732.5000	10248.5000	1887.0000	0.0000	-6650.0000	2177.5000	3838.5000	8184.0000	556.5000	3775.0000	2964.5000	7599.5000	-3305.5000	-1103.5000	-6459.5000	3525.5000	1292.0000	0.0000	0.0000
183.5938	-1238.5000	276.0000	-3062.5000	-6494.0000	-11206.5000	1912.0000	9345.5000	-9675.0000	105.0000	5923.0000	96.5000	-1339.0000	0.0000	-4126.5000	-2729.0000	-6760.5000	10216.0000	1828.5000	0.0000	-6687.5000	2147.0000	3809.5000	8145.5000	824.5000	3740.0000	2930.5000	7560.5000	-2619.5000	-1141.5000	-6519.5000	3478.5000	1262.5000	0.0000	0.0000
185.5469	-1222.0000	294.5000	-3048.0000	-6485.0000	-11193.0000	1931.0000	9356.5000	-9668.0000	112.5000	5940.0000	107.0000	-1332.5000	0.0000	-4123.5000	-2718.0000	-6746.0000	10225.5000	1791.5000	0.0000	-6682.5000	2158.5000	3821.0000	8145.5000	772.0000	3745.5000	2938.5000	7556.0000	-2723.5000	-1139.0000	-6535.0000	3468.5000	1252.0000	0.0000	0.0000
187.5000	-1207.5000	308.0000	-3037.0000	-6477.5000	-11178.5000	1948.5000	9366.5000	-9660.5000	122.0000	5953.0000	117.5000	-1325.0000	0.0000	-4118.0000	-2708.0000	-6734.0000	10234.0000	1768.0000	0.0000	-6677.5000	2168.0000	3829.5000	8148.5000	645.5000	3751.5000	2947.5000	7556.0000	-2777.5000	-1134.0000	-6542.0000	3459.5000	1252.5000	0.0000	0.0000
189.4531	-1189.5000	326.5000	-3020.0000	-6460.0000	-11161.5000	1966.5000	9383.0000	-9642.5000	139.0000	5972.0000	132.0000	-1309.5000	0.0000	-4100.0000	-2690.0000	-6715.0000	10251.0000	1767.5000	0.0000	-6659.5000	2185.0000	3841.5000	8165.0000	580.0000	3769.5000	2964.0000	7573.0000	-2778.0000	-1117.5000	-6529.0000	3462.5000	894.5000	0.0000	0.0000
191.4062	-1180.0000	336.5000	-3008.0000	-6446.5000	-11152.5000	1975.0000	9396.0000	-9629.0000	152.0000	5983.0000	143.0000	-1295.5000	0.0000	-4087.0000	-2679.0000	-6706.0000	10264.5000	1774.5000	0.0000	-6643.5000	2196.0000	3853.0000	8176.5000	540.0000	3784.5000	2977.0000	7587.5000	-2771.5000	-1101.0000	-6513.5000	3472.5000	601.0000	0.0000	0.0000
193.3594	-1189.0000	324.0000	-3013.5000	-6449.0000	-11158.5000	1963.0000	9391.5000	-9630.5000	149.5000	5973.0000	135.5000	-1297.0000	0.0000	-4085.0000	-2682.5000	-6712.5000	10260.5000	1768.5000	0.0000	-6640.0000	2191.5000	3846.5000	8167.5000	500.0000	3785.0000	2974.5000	7596.5000	-2775.5000	-1098.0000	-6507.5000	3472.0000	740.5000	0.0000	0.0000
195.3125	-1199.0000	313.5000	-3020.0000	-6451.5000	-11166.5000	1949.5000	9386.0000	-9631.5000	147.5000	5962.0000	125.5000	-1296.0000	0.0000	-4081.0000	-2687.0000	-6721.0000	10257.5000	1766.5000	0.0000	-6636.0000	2185.0000	3842.0000	8181.0000	480.0000	3783.5000	2971.0000	7603.0000	-2777.0000	-1096.5000	-6499.0000	3476.5000	831.5000	0.0000	0.0000
197.2656	-1207.5000	305.0000	-3025.5000	-6453.0000	-11173.0000	1939.5000	9382.0000	-9631.0000	144.5000	5954.5000	118.5000	-1298.0000	0.0000	-4080.5000	-2692.0000	-6730.0000	10255.0000	1770.5000	0.0000	-6635.5000	2179.5000	3833.0000	8183.5000	460.0000	3782.0000	2969.0000	7609.5000	-2780.5000	-1093.0000	-6494.0000	3477.5000	932.5000	0.0000	0.0000
199.2188	-1208.5000	302.0000	-3026.0000	-6455.0000	-11176.5000	1935.5000	9379.5000	-9631.0000	141.5000	5951.0000	113.5000	-1300.0000	0.0000	-4081.0000	-2694.5000	-6733.0000	10252.0000	1784.0000	0.0000	-6636.0000	2175.0000	3825.5000	8184.0000	437.5000	3781.0000	2967.5000	7613.5000	-2793.0000	-1094.5000	-6494.5000	3469.5000	1010.0000	0.0000	0.0000
201.1719	-1232.5000	276.5000	-3052.5000	-6483.0000	-11200.0000	1912.0000	9351.5000	-9659.5000	115.5000	5925.5000	86.5000	-1327.5000	0.0000	-4111.5000	-2721.0000	-6759.0000	10224.5000	1750.5000	0.0000	-6665.5000	2149.0000	3797.0000	8153.0000	391.0000	3751.5000	2939.0000	7573.5000	-2837.5000	-1123.5000	-6529.5000	3432.5000	1874.5000	0.0000	0.0000
203.1250	-1255.0000	257.0000	-3076.5000	-6509.5000	-11222.5000	1891.5000	9326.5000	-9689.0000	88.0000	5904.0000	61.0000	-1357.5000	0.0000	-4142.0000	-2747.5000	-6783.0000	10198.5000	1717.0000	0.0000	-6695.0000	2124.0000	3768.5000	8123.5000	344.5000	3722.0000	2911.5000	7539.0000	-2884.5000	-1156.0000	-6568.5000	3389.5000	2720.5000	0.0000	0.0000
205.0781	-1260.0000	254.5000	-3086.0000	-6523.0000	-11230.5000	1888.5000	9315.5000	-9702.5000	75.0000	5900.5000	52.5000	-1374.0000	0.0000	-4160.0000	-2758.0000	-6790.5000	10185.5000	1690.5000	0.0000	-6713.0000	2113.5000	3757.0000	8102.5000	311.0000	3707.0000	2897.0000	7523.5000	-2919.5000	-1173.5000	-6596.0000	3358.0000	3154.5000	0.0000	0.0000
207.0312	-1258.0000	257.0000	-3086.0000	-6526.0000	-11229.0000	1894.5000	9313.5000	-9707.0000	73.0000	5903.0000	53.5000	-1378.0000	0.0000	-4168.0000	-2760.0000	-6787.5000	10183.0000	1680.0000	0.0000	-6717.5000	2112.5000	3754.5000	8091.5000	293.5000	3701.0000	2894.0000	7519.5000	-2941.0000	-1180.0000	-6612.0000	3340.0000	3287.5000	0.0000	0.0000
208.9844	-1255.0000	259.0000	-3085.5000	-6526.5000	-11227.5000	1897.0000	9313.5000	-9708.0000	72.0000	5903.5000	53.0000	-1378.5000	0.0000	-4168.0000	-2759.5000	-6788.0000	10183.0000	1676.0000	0.0000	-6719.5000	2113.0000	3754.0000	8093.5000	286.5000	3701.5000	2892.5000	7510.0000	-2954.0000	-1181.5000	-6615.5000	3332.0000	3326.0000	0.0000	0.0000
210.9375	-1257.5000	255.5000	-3086.5000	-6524.5000	-11228.5000	1894.0000	9312.5000	-9708.0000	71.5000	5900.5000	50.0000	-1379.0000	0.0000	-4168.0000	-2761.5000	-6791.0000	10181.5000	1673.5000	0.0000	-6718.0000	2110.5000	3750.5000	8098.0000	288.5000	3702.5000	2893.0000	7510.0000	-2957.5000	-1180.0000	-6611.5000	3333.5000	3347.0000	0.0000	0.0000
212.8906	-1262.5000	248.5000	-3089.5000	-6526.5000	-11233.0000	1885.5000	9309.5000	-9706.0000	72.0000	5894.5000	43.5000	-1378.0000	0.0000	-4164.5000	-2763.0000	-6795.0000	10180.0000	1675.0000	0.0000	-6715.0000	2107.0000	3746.0000	8102.5000	297.5000	3703.5000	2892.5000	7515.0000	-2958.5000	-1177.0000	-6606.0000	3339.5000	3363.0000	0.0000	0.0000
214.8438	-1272.0000	240.0000	-3093.0000	-6526.5000	-11240.0000	1874.0000	9306.0000	-9705.0000	72.5000	5887.5000	36.0000	-1378.0000	0.0000	-4159.5000	-2765.5000	-6803.5000	10178.5000	1678.0000	0.0000	-6710.5000	2104.0000	3740.0000	8111.0000	312.0000	3704.0000	2891.5000	7516.5000	-2954.5000	-1172.0000	-6594.5000	3348.5000	3374.5000	0.0000	0.0000
216.7969	-1277.0000	233.0000	-3096.0000	-6527.0000	-11243.0000	1865.0000	9303.5000	-9704.0000	71.5000	5882.5000	30.5000	-1376.5000	0.0000	-4156.0000	-2768.0000	-6808.5000	10177.5000	1683.5000	0.0000	-6707.0000	2101.0000	3736.5000	8119.5000	321.5000	3705.0000	2893.0000	7511.5000	-2954.0000	-1167.5000	-6586.0000	3356.0000	3379.5000	0.0000	0.0000
218.7500	-1277.0000	232.5000	-3097.0000	-6526.0000	-11244.0000	1863.5000	9303.5000	-9702.0000	70.5000	5881.0000	30.0000	-1376.5000	0.0000	-4154.0000	-2769.0000	-6808.0000	10177.5000	1684.5000	0.0000	-6706.0000	2099.5000	3735.5000	8123.0000	326.0000	3706.5000	2894.0000	7511.5000	-2957.5000	-1165.0000	-6582.0000	3357.0000	3367.0000	0.0000	0.0000
220.7031	-1275.5000	233.0000	-3096.0000	-6526.0000	-11241.5000	1866.5000	9304.0000	-9702.5000	70.5000	5881.5000	30.5000	-1377.0000	0.0000	-4154.5000	-2769.0000	-6805.5000	10178.5000	1687.5000	0.0000	-6705.5000	2099.0000	3734.5000	8121.5000	321.5000	3707.0000	2894.0000	7537.0000	-2967.0000	-1168.0000	-6584.0000	3351.5000	3354.5000	0.0000	0.0000
222.6562	-1268.5000	241.0000	-3090.5000	-6524.5000	-11235.5000	1876.0000	9308.0000	-9702.5000	73.5000	5888.5000	35.5000	-1377.0000	0.0000	-4155.0000	-2765.5000	-6799.0000	10180.0000	1688.0000	0.0000	-6706.0000	2104.5000	3736.5000	8114.5000	313.0000	3706.5000	2895.0000	7528.0000	-2980.5000	-1169.0000	-6591.5000	3339.0000	3338.5000	0.0000	0.0000
224.6094	-1258.0000	254.0000	-3084.0000	-6521.5000	-11227.5000	1889.5000	9314.0000	-9701.5000	75.5000	5898.0000	41.0000	-1376.5000	0.0000	-4159.5000	-2760.5000	-6791.5000	10182.5000	1688.0000	0.0000	-6708.5000	2110.0000	3739.0000	8111.0000	298.5000	3706.5000	2897.0000	7516.0000	-3000.0000	-1170.0000	-6603.5000	3323.0000	3319.0000	0.0000	0.0000
226.5625	-1249.0000	263.0000	-3080.0000	-6521.5000	-11219.5000	1900.5000	9317.0000	-9702.0000	76.0000	5907.5000	46.5000	-1378.0000	0.0000	-4162.0000	-2757.0000	-6784.5000	10184.5000	1691.0000	0.0000	-6708.5000	2114.0000	3742.0000	8107.5000	286.5000	3706.5000	2900.0000	7507.0000	-3014.0000	-1173.0000	-6612.5000	3309.5000	3302.0000	0.0000	0.0000
228.5156	-1244.5000	267.0000	-3077.0000	-6520.0000	-11217.5000	1903.5000	9317.5000	-9701.5000	78.0000	5911.0000	49.5000	-1377.5000	0.0000	-4161.5000	-2756.0000	-6781.5000	10186.0000	1690.5000	0.0000	-6708.5000	2115.5000	3745.0000	8108.5000	282.5000	3708.0000	2901.0000	7503.0000	-3023.0000	-1173.0000	-6617.0000	3302.0000	3290.5000	0.0000	0.0000
230.4688	-1247.0000	266.0000	-3077.5000	-6519.0000	-11217.5000	1901.5000	9316.0000	-9700.5000	78.0000	5908.5000	45.5000	-1377.5000	0.0000	-4160.0000	-2757.5000	-6782.0000	10184.5000	1693.5000	0.0000	-6706.5000	2115.5000	3742.0000	8112.0000	285.5000	3709.5000	2901.0000	7512.0000	-3028.5000	-1170.5000	-6613.0000	3301.5000	3286.5000	0.0000	0.0000
232.4219	-1251.0000	260.0000	-3081.0000	-6519.0000	-11223.5000	1895.5000	9313.0000	-9698.5000	78.0000	5905.0000	40.5000	-1376.0000	0.0000	-4157.0000	-2759.5000	-6786.5000	10183.0000	1699.5000	0.0000	-6705.5000	2114.0000	3739.0000	8115.0000	293.0000	3710.0000	2900.5000	7516.5000	-3026.5000	-1168.0000	-6606.0000	3307.5000	3288.0000	0.0000	0.0000
234.3750	-1259.5000	249.0000	-3084.0000	-6520.0000	-11229.0000	1883.5000	9309.5000	-9697.5000	75.5000	5896.5000	32.0000	-1376.0000	0.0000	-4155.5000	-2761.5000	-6793.0000	10180.5000	1708.5000	0.0000	-6701.5000	2107.5000	3734.5000	8121.5000	306.5000	3708.0000	2898.5000	7537.5000	-3020.5000	-1165.5000	-6595.0000	3315.5000	3295.5000	0.0000	0.0000
236.3281	-1268.0000	240.0000	-3088.5000	-6522.0000	-11234.5000	1872.0000	9306.0000	-9698.0000	75.5000	5888.0000	25.0000	-1376.0000	0.0000	-4149.5000	-2766.0000	-6800.5000	10178.0000	1713.0000	0.0000	-6698.0000	2103.0000	3729.0000	8127.5000	316.5000	3707.5000	2897.5000	7566.5000	-3017.5000	-1163.5000	-6585.5000	3323.0000	3300.0000	0.0000	0.0000
238.2812	-1270.0000	237.5000	-3089.5000	-6521.5000	-11236.0000	1868.5000	9304.5000	-9698.0000	76.0000	5884.5000	21.0000	-1374.5000	0.0000	-4148.5000	-2767.5000	-6803.5000	10178.0000	1716.0000	0.0000	-6697.5000	2102.5000	3727.0000	8134.0000	321.0000	3708.0000	2897.0000	7571.5000	-3019.5000	-1162.0000	-6581.5000	3324.0000	3298.5000	0.0000	0.0000
240.2344	-1268.5000	239.5000	-3088.0000	-6520.0000	-11234.0000	1871.5000	9305.0000	-9696.0000	76.0000	5887.5000	20.0000	-1375.5000	0.0000	-4147.5000	-2766.5000	-6801.0000	10178.0000	1718.0000	0.0000	-6698.5000	2103.0000	3728.0000	8135.5000	320.0000	3708.5000	2897.0000	7566.5000	-3026.0000	-1162.0000	-6583.0000	3321.0000	3290.5000	0.0000	0.0000
242.1875	-1260.5000	245.5000	-3083.5000	-6518.0000	-11229.5000	1879.0000	9306.0000	-9696.5000	77.0000	5893.5000	24.0000	-1376.0000	0.0000	-4149.0000	-2763.0000	-6795.5000	10178.5000	1714.5000	0.0000	-6698.0000	2106.0000	3731.5000	8129.0000	311.0000	3709.0000	2900.0000	7562.5000	-3036.5000	-1162.0000	-6589.0000	3311.5000	3278.0000	0.0000	0.0000
244.1406	-1251.0000	256.0000	-3080.0000	-6516.5000	-11220.5000	1891.5000	9310.0000	-9697.0000	79.0000	5902.0000	30.5000	-1376.5000	0.0000	-4151.5000	-2759.5000	-6788.0000	10181.5000	1708.0000	0.0000	-6700.0000	2112.0000	3735.0000	8123.0000	299.0000	3710.5000	2902.5000	7556.5000	-3051.0000	-1165.0000	-6599.0000	3298.5000	3261.5000	0.0000	0.0000
246.0938	-1241.5000	266.5000	-3074.0000	-6516.0000	-11213.0000	1903.5000	9314.0000	-9698.0000	81.0000	5911.0000	36.0000	-1376.5000	0.0000	-4154.0000	-2756.0000	-6779.5000	10186.0000	1705.0000	0.0000	-6702.5000	2117.5000	3740.5000	8114.5000	283.5000	3709.5000	2904.5000	7554.5000	-3066.0000	-1168.0000	-6608.0000	3284.0000	3243.5000	0.0000	0.0000
248.0469	-1237.5000	272.0000	-3071.0000	-6514.5000	-11209.5000	1909.0000	9317.5000	-9697.0000	83.5000	5914.5000	36.0000	-1378.5000	0.0000	-4155.5000	-2751.5000	-6775.0000	10186.5000	1703.0000	0.0000	-6702.5000	2121.0000	3742.5000	8109.5000	278.0000	3709.0000	2906.5000	7552.5000	-3075.0000	-1168.5000	-6612.0000	3276.0000	3232.5000	0.0000	0.0000
250.0000	-1237.5000	272.0000	-3071.5000	-6513.0000	-11209.5000	1908.0000	9316.5000	-9696.0000	84.0000	5915.5000	30.5000	-1377.0000	0.0000	-4153.0000	-2752.5000	-6775.5000	10186.5000	1704.5000	0.0000	-6701.5000	2122.5000	3742.0000	8111.0000	277.5000	3711.5000	2907.0000	7545.5000	-3077.5000	-1168.0000	-6610.5000	3278.5000	3229.5000	0.0000	0.0000
251.9531	-1242.5000	267.0000	-3074.0000	-6512.5000	-11213.0000	1902.5000	9314.0000	-9696.0000	83.5000	5911.0000	24.5000	-1376.0000	0.0000	-4150.0000	-2754.5000	-6780.5000	10185.5000	1707.5000	0.0000	-6700.0000	2120.5000	3741.5000	8116.0000	287.5000	3712.5000	2907.5000	7545.5000	-3075.5000	-1166.0000	-6602.5000	3284.0000	3233.5000	0.0000	0.0000
253.9062	-1251.0000	258.0000	-3077.0000	-6513.5000	-11217.5000	1894.0000	9311.0000	-9694.0000	83.0000	5904.0000	15.5000	-1376.5000	0.0000	-4147.5000	-2758.0000	-6787.5000	10184.5000	1714.0000	0.0000	-6694.5000	2116.0000	3737.5000	8120.5000	299.0000	3713.0000	2907.0000	7550.5000	-3069.0000	-1161.5000	-6592.5000	3291.5000	3241.5000	0.0000	0.0000
255.8594	-1257.0000	248.5000	-3080.0000	-6513.5000	-11223.0000	1883.0000	9306.5000	-9692.0000	81.5000	5897.0000	7.0000	-1375.5000	0.0000	-4142.5000	-2761.0000	-6795.5000	10181.5000	1717.5000	0.0000	-6691.5000	2111.5000	3733.5000	8128.0000	311.5000	3713.5000	2904.5000	7556.5000	-3062.5000	-1158.5000	-6583.0000	3302.5000	3250.5000	0.0000	0.0000
257.8125	-1260.5000	243.0000	-3081.0000	-6512.0000	-11226.0000	1875.0000	9308.5000	-9691.0000	82.5000	5893.5000	-1.0000	-1376.0000	0.0000	-4139.5000	-2763.5000	-6798.0000	10180.0000	1721.0000	0.0000	-6691.5000	2109.0000	3731.5000	8132.5000	318.5000	3714.0000	2904.5000	7560.0000	-3061.0000	-1158.5000	-6577.0000	3308.5000	3254.5000	0.0000	0.0000
259.7656	-1259.0000	243.5000	-3081.0000	-6511.5000	-11226.5000	1878.0000	9313.5000	-9690.5000	83.5000	5892.5000	-9.0000	-1375.5000	0.0000	-4139.0000	-2763.0000	-6798.0000	10179.0000	1723.0000	0.0000	-6692.5000	2111.5000	3731.5000	8133.5000	318.5000	3714.5000	2905.5000	7557.0000	-3063.0000	-1157.0000	-6576.5000	3308.0000	3250.5000	0.0000	0.0000
261.7188	-1254.5000	249.0000	-3077.5000	-6511.0000	-11223.0000	1883.5000	9317.0000	-9691.5000	85.0000	5898.5000	-10.5000	-1376.5000	0.0000	-4140.5000	-2760.5000	-6793.5000	10181.0000	1723.0000	0.0000	-6692.5000	2115.0000	3733.0000	8132.0000	311.0000	3713.5000	2906.5000	7553.5000	-3071.5000	-1158.5000	-6579.5000	3299.5000	3240.5000	0.0000	0.0000
263.6719	-1246.0000	257.5000	-3072.5000	-6509.0000	-11216.0000	1893.0000	9323.0000	-9692.5000	86.5000	5904.0000	-5.5000	-1378.0000	0.0000	-4142.5000	-2757.5000	-6786.0000	10184.5000	1710.5000	0.0000	-6692.5000	2119.5000	3738.0000	8125.5000	299.0000	3715.0000	2908.5000	7550.5000	-3084.5000	-1160.0000	-6588.5000	3288.5000	3228.0000	0.0000	0.0000
265.6250	-1238.0000	267.5000	-3070.0000	-6508.0000	-11209.5000	1904.5000	9327.5000	-9692.0000	87.0000	5913.5000	8.0000	-1379.0000	0.0000	-4146.5000	-2754.0000	-6780.0000	10186.0000	1710.5000	0.0000	-6695.5000	2124.5000	3743.0000	8119.5000	286.0000	3715.5000	2908.0000	7544.5000	-3098.5000	-1163.0000	-6598.0000	3275.5000	3211.5000	0.0000	0.0000
267.5781	-1233.5000	273.0000	-3068.5000	-6508.0000	-11206.0000	1912.0000	9327.5000	-9693.5000	87.5000	5918.5000	33.5000	-1382.5000	0.0000	-4149.5000	-2752.5000	-6775.5000	10185.5000	1720.0000	0.0000	-6698.5000	2128.0000	3744.5000	8117.0000	276.5000	3713.5000	2909.5000	7539.5000	-3108.5000	-1167.0000	-6605.0000	3264.5000	3199.0000	0.0000	0.0000
269.5312	-1234.0000	273.5000	-3068.5000	-6508.5000	-11205.5000	1912.0000	9328.5000	-9695.0000	87.5000	5918.0000	45.0000	-1382.5000	0.0000	-4149.5000	-2752.0000	-6774.5000	10185.0000	1719.0000	0.0000	-6697.5000	2128.0000	3742.5000	8116.5000	276.0000	3714.5000	2911.0000	7536.5000	-3112.5000	-1167.0000	-6605.0000	3263.0000	3196.5000	0.0000	0.0000
271.4844	-1236.5000	269.5000	-3068.5000	-6506.5000	-11207.5000	1906.5000	9327.5000	-9692.0000	88.5000	5914.5000	37.5000	-1381.5000	0.0000	-4147.0000	-2754.0000	-6778.5000	10184.5000	1714.0000	0.0000	-6695.5000	2128.0000	3741.0000	8118.5000	281.0000	3713.5000	2911.0000	7539.5000	-3112.0000	-1166.0000	-6599.0000	3269.5000	3199.5000	0.0000	0.0000
273.4375	-1243.0000	260.0000	-3070.0000	-6506.5000	-11213.0000	1899.0000	9326.0000	-9692.0000	87.0000	5908.5000	28.0000	-1381.0000	0.0000	-4142.0000	-2756.0000	-6781.5000	10184.0000	1712.5000	0.0000	-6691.5000	2125.0000	3738.5000	8123.0000	292.0000	3715.0000	2908.0000	7542.5000	-3105.5000	-1162.5000	-6590.0000	3277.5000	3208.0000	0.0000	0.0000
275.3906	-1251.0000	252.0000	-3074.0000	-6505.0000	-11219.5000	1886.5000	9323.5000	-9690.0000	88.5000	5899.5000	22.0000	-1378.5000	0.0000	-4139.0000	-2759.0000	-6788.5000	10183.0000	1712.5000	0.0000	-6688.5000	2120.0000	3734.0000	8126.0000	305.5000	3715.5000	2908.0000	7544.5000	-3096.5000	-1159.0000	-6579.5000	3289.0000	3219.0000	0.0000	0.0000
277.3438	-1256.0000	245.0000	-3077.0000	-6506.0000	-11221.5000	1879.0000	9319.5000	-9689.5000	88.0000	5893.5000	22.5000	-1378.5000	0.0000	-4135.0000	-2761.5000	-6793.5000	10180.5000	1713.5000	0.0000	-6688.5000	2117.5000	3731.5000	8131.5000	313.0000	3717.5000	2906.5000	7547.5000	-3092.0000	-1157.0000	-6572.0000	3296.5000	3225.0000	0.0000	0.0000
279.2969	-1258.0000	243.5000	-3077.0000	-6506.5000	-11221.0000	1880.5000	9319.0000	-9689.0000	88.0000	5893.0000	31.0000	-1378.5000	0.0000	-4134.5000	-2761.0000	-6793.5000	10180.0000	1709.5000	0.0000	-6687.5000	2117.0000	3731.0000	8131.0000	315.0000	3717.0000	2906.5000	7546.5000	-3094.5000	-1156.5000	-6570.0000	3295.5000	3223.5000	0.0000	0.0000
281.2500	-1251.0000	249.0000	-3074.5000	-6508.0000	-11220.5000	1882.5000	9318.5000	-9688.0000	89.5000	5898.0000	45.5000	-1378.0000	0.0000	-4135.0000	-2760.5000	-6790.0000	10181.5000	1705.5000	0.0000	-6687.5000	2120.5000	3733.5000	8125.0000	308.5000	3717.0000	2907.0000	7544.0000	-3103.5000	-1159.0000	-6574.5000	3290.5000	3214.5000	0.0000	0.0000
283.2031	-1245.5000	256.0000	-3071.0000	-6505.5000	-11215.5000	1890.5000	9320.0000	-9691.0000	89.0000	5904.0000	57.5000	-1379.0000	0.0000	-4138.5000	-2757.0000	-6784.0000	10182.0000	1701.5000	0.0000	-6690.5000	2124.5000	3737.0000	8120.0000	299.5000	3716.0000	2909.5000	7539.5000	-3113.5000	-1160.0000	-6582.5000	3282.0000	3205.5000	0.0000	0.0000
285.1562	-1237.0000	266.5000	-3066.5000	-6503.0000	-11207.0000	1905.0000	9320.0000	-9692.0000	91.0000	5913.5000	57.0000	-1379.5000	0.0000	-4141.0000	-2753.5000	-6775.5000	10185.5000	1697.0000	0.0000	-6692.0000	2131.0000	3740.5000	8113.5000	286.5000	3716.0000	2911.0000	7535.0000	-3127.5000	-1162.5000	-6593.0000	3269.0000	3190.5000	0.0000	0.0000
287.1094	-1230.5000	274.5000	-3064.0000	-6502.0000	-11201.0000	1914.5000	9319.5000	-9693.0000	93.0000	5919.0000	59.0000	-1380.5000	0.0000	-4145.0000	-2750.0000	-6769.0000	10187.5000	1693.0000	0.0000	-6692.5000	2136.0000	3744.5000	8111.0000	277.0000	3715.5000	2913.5000	7532.5000	-3138.5000	-1164.0000	-6600.0000	3260.0000	3180.0000	0.0000	0.0000
289.0625	-1228.0000	278.5000	-3062.0000	-6501.0000	-11200.5000	1916.0000	9319.5000	-9692.5000	91.5000	5922.0000	62.5000	-1379.5000	0.0000	-4144.5000	-2751.0000	-6768.5000	10188.0000	1690.5000	0.0000	-6693.0000	2138.0000	3747.0000	8108.5000	273.5000	3716.5000	2913.5000	7533.5000	-3145.0000	-1166.0000	-6601.0000	3256.5000	3176.5000	0.0000	0.0000
291.0156	-1230.5000	274.0000	-3064.0000	-6502.0000	-11202.5000	1912.0000	9319.0000	-9692.0000	92.5000	5918.0000	64.5000	-1379.5000	0.0000	-4143.5000	-2752.0000	-6771.0000	10187.5000	1691.5000	0.0000	-6692.5000	2137.5000	3743.5000	8110.5000	278.5000	3717.0000	2913.0000	7533.5000	-3142.5000	-1163.5000	-6596.5000	3260.5000	3178.0000	0.0000	0.0000
292.9688	-1236.5000	265.0000	-3066.5000	-6502.0000	-11207.5000	1904.0000	9313.5000	-9690.5000	91.5000	5912.0000	58.5000	-1379.5000	0.0000	-4140.5000	-2754.5000	-6774.5000	10186.0000	1695.5000	0.0000	-6690.5000	2135.0000	3742.5000	8115.0000	288.0000	3717.5000	2911.5000	7538.0000	-3138.5000	-1162.5000	-6589.0000	3268.5000	3188.5000	0.0000	0.0000
294.9219	-1248.0000	255.0000	-3070.5000	-6503.5000	-11214.5000	1894.0000	9310.0000	-9689.5000	91.0000	5902.0000	54.0000	-1378.5000	0.0000	-4137.0000	-2757.0000	-6782.5000	10183.5000	1701.0000	0.0000	-6685.5000	2129.5000	3737.0000	8121.0000	302.0000	3718.5000	2910.0000	7543.0000	-3128.0000	-1159.5000	-6577.0000	3279.5000	3199.5000	0.0000	0.0000
296.8750	-1252.5000	249.0000	-3072.5000	-6504.0000	-11219.5000	1884.0000	9308.5000	-9689.0000	91.0000	5897.0000	45.5000	-1376.5000	0.0000	-4133.5000	-2760.5000	-6788.5000	10182.5000	1702.0000	0.0000	-6683.0000	2126.5000	3733.5000	8126.0000	309.5000	3718.5000	2908.5000	7548.0000	-3123.0000	-1156.5000	-6569.0000	3289.5000	3209.5000	0.0000	0.0000
298.8281	-1254.5000	246.5000	-3074.0000	-6502.5000	-11220.5000	1881.5000	9308.0000	-9688.5000	91.0000	5895.0000	49.5000	-1378.0000	0.0000	-4132.0000	-2761.5000	-6790.5000	10181.0000	1701.5000	0.0000	-6683.0000	2124.0000	3733.0000	8128.5000	312.5000	3718.0000	2908.0000	7548.0000	-3124.0000	-1155.0000	-6566.0000	3291.5000	3211.5000	0.0000	0.0000
300.7812	-1252.5000	250.5000	-3072.5000	-6503.0000	-11218.0000	1885.0000	9309.0000	-9689.5000	91.0000	5897.5000	53.0000	-1378.0000	0.0000	-4131.5000	-2762.5000	-6786.5000	10182.5000	1699.5000	0.0000	-6683.5000	2128.0000	3734.0000	8127.5000	307.0000	3718.0000	2909.0000	7547.5000	-3129.5000	-1157.0000	-6567.5000	3287.5000	3206.5000	0.0000	0.0000
302.7344	-1246.0000	255.5000	-3069.0000	-6502.0000	-11213.0000	1893.0000	9311.5000	-9689.5000	91.5000	5903.0000	57.0000	-1379.0000	0.0000	-4134.5000	-2760.0000	-6780.5000	10185.0000	1696.0000	0.0000	-6685.0000	2132.0000	3738.0000	8124.5000	299.0000	3719.0000	2910.5000	7543.5000	-3139.5000	-1158.5000	-6575.5000	3277.5000	3195.5000	0.0000	0.0000
304.6875	-1236.5000	267.0000	-3064.0000	-6502.5000	-11206.5000	1905.0000	9314.5000	-9690.0000	93.0000	5912.0000	62.5000	-1380.5000	0.0000	-4138.5000	-2755.0000	-6772.5000	10186.5000	1688.5000	0.0000	-6685.5000	2137.5000	3741.5000	8121.0000	286.5000	3717.5000	2913.5000	7539.5000	-3154.0000	-1162.0000	-6586.0000	3265.5000	3182.0000	0.0000	0.0000
306.6406	-1230.0000	273.0000	-3060.0000	-6500.0000	-11199.0000	1915.5000	9320.0000	-9691.0000	93.0000	5919.5000	71.5000	-1381.0000	0.0000	-4142.5000	-2751.0000	-6765.5000	10187.5000	1683.5000	0.0000	-6688.0000	2144.0000	3745.0000	8111.5000	276.0000	3717.5000	2914.0000	7535.5000	-3166.5000	-1165.0000	-6594.0000	3255.5000	3170.0000	0.0000	0.0000
308.5938	-1226.5000	275.0000	-3059.0000	-6499.5000	-11197.0000	1920.5000	9322.5000	-9691.5000	95.0000	5923.5000	72.5000	-1381.0000	0.0000	-4143.0000	-2750.0000	-6762.0000	10188.5000	1681.0000	0.0000	-6688.0000	2147.0000	3747.5000	8108.5000	270.0000	3718.0000	2917.0000	7534.0000	-3174.0000	-1165.5000	-6598.5000	3249.5000	3165.5000	0.0000	0.0000
310.5469	-1227.0000	273.5000	-3060.0000	-6499.0000	-11198.0000	1918.0000	9321.0000	-9691.5000	95.0000	5922.0000	70.5000	-1380.5000	0.0000	-4140.5000	-2752.0000	-6762.5000	10188.0000	1681.0000	0.0000	-6688.0000	2144.5000	3746.0000	8109.0000	271.5000	3719.0000	2917.0000	7535.0000	-3173.5000	-1164.0000	-6594.0000	3252.0000	3167.0000	0.0000	0.0000
312.5000	-1235.0000	266.5000	-3062.5000	-6499.0000	-11203.0000	1909.5000	9316.5000	-9690.0000	95.0000	5915.5000	69.5000	-1380.0000	0.0000	-4138.0000	-2753.5000	-6767.5000	10186.0000	1683.0000	0.0000	-6685.5000	2141.5000	3744.0000	8112.5000	279.5000	3719.5000	2915.5000	7538.5000	-3166.0000	-1161.5000	-6587.5000	3260.5000	3176.0000	0.0000	0.0000
314.4531	-1243.0000	255.5000	-3067.0000	-6500.0000	-11209.0000	1898.5000	9313.5000	-9688.0000	92.5000	5907.0000	64.0000	-1379.0000	0.0000	-4134.5000	-2757.0000	-6774.0000	10185.0000	1688.0000	0.0000	-6683.0000	2137.0000	3739.5000	8119.5000	292.0000	3720.5000	2913.0000	7543.0000	-3158.5000	-1158.5000	-6575.0000	3271.5000	3187.0000	0.0000	0.0000
316.4062	-1251.0000	247.5000	-3070.0000	-6501.0000	-11215.5000	1889.0000	9313.0000	-9688.5000	91.5000	5898.5000	62.5000	-1378.5000	0.0000	-4131.0000	-2760.5000	-6779.0000	10183.5000	1692.5000	0.0000	-6680.0000	2132.0000	3738.0000	8123.5000	301.5000	3719.0000	2912.0000	7547.5000	-3151.5000	-1156.0000	-6564.5000	3281.0000	3197.0000	0.0000	0.0000
318.3594	-1255.0000	243.0000	-3071.5000	-6501.5000	-11218.0000	1883.0000	9312.5000	-9688.5000	91.0000	5895.5000	63.5000	-1379.0000	0.0000	-4130.0000	-2763.5000	-6777.5000	10181.0000	1694.5000	0.0000	-6678.0000	2130.5000	3734.5000	8125.5000	304.0000	3719.5000	2911.5000	7549.5000	-3148.0000	-1154.5000	-6561.0000	3285.0000	3202.0000	0.0000	0.0000
320.3125	-1253.0000	244.0000	-3071.0000	-6501.0000	-11218.0000	1884.5000	9315.5000	-9687.0000	91.0000	5896.5000	65.5000	-1379.5000	0.0000	-4128.5000	-2762.5000	-6774.5000	10181.0000	1693.5000	0.0000	-6678.0000	2130.0000	3736.0000	8124.5000	303.0000	3719.5000	2910.5000	7548.0000	-3152.0000	-1155.5000	-6563.5000	3283.0000	3199.5000	0.0000	0.0000
322.2656	-1247.0000	248.5000	-3069.0000	-6501.0000	-11213.0000	1892.0000	9319.5000	-9689.5000	92.0000	5902.0000	70.5000	-1379.5000	0.0000	-4132.0000	-2760.0000	-6768.5000	10183.0000	1691.0000	0.0000	-6677.5000	2135.5000	3738.0000	8119.5000	294.5000	3719.0000	2911.5000	7545.5000	-3163.0000	-1156.5000	-6569.0000	3275.0000	3190.0000	0.0000	0.0000
324.2188	-1239.0000	258.0000	-3065.0000	-6499.5000	-11206.0000	1903.5000	9325.5000	-9690.5000	91.5000	5910.0000	76.5000	-1381.0000	0.0000	-4137.0000	-2756.5000	-6760.5000	10185.0000	1685.0000	0.0000	-6680.5000	2140.5000	3742.0000	8114.0000	282.0000	3718.5000	2915.0000	7540.0000	-3174.5000	-1159.0000	-6577.0000	3263.5000	3177.0000	0.0000	0.0000
326.1719	-1231.5000	266.5000	-3061.0000	-6499.0000	-11199.5000	1914.0000	9328.0000	-9691.0000	94.0000	5918.0000	83.5000	-1381.5000	0.0000	-4140.0000	-2753.5000	-6751.5000	10187.0000	1679.5000	0.0000	-6683.5000	2146.0000	3745.5000	8108.5000	270.5000	3718.5000	2917.5000	7537.0000	-3187.5000	-1163.0000	-6587.0000	3251.0000	3165.0000	0.0000	0.0000
328.1250	-1226.5000	272.0000	-3057.5000	-6498.0000	-11196.5000	1919.0000	9330.0000	-9691.0000	95.0000	5924.0000	86.0000	-1382.0000	0.0000	-4140.0000	-2753.0000	-6748.0000	10189.5000	1677.0000	0.0000	-6684.0000	2149.0000	3748.0000	8105.5000	262.0000	3718.5000	2917.5000	7535.0000	-3197.0000	-1163.0000	-6593.0000	3245.0000	3156.5000	0.0000	0.0000
330.0781	-1227.5000	270.5000	-3057.0000	-6497.5000	-11196.0000	1918.5000	9332.0000	-9691.0000	95.5000	5923.0000	85.0000	-1381.5000	0.0000	-4141.0000	-2752.5000	-6747.0000	10187.5000	1676.0000	0.0000	-6681.5000	2150.0000	3747.0000	8105.5000	262.0000	3719.5000	2918.5000	7535.5000	-3199.0000	-1163.5000	-6592.0000	3245.5000	3156.5000	0.0000	0.0000
332.0312	-1232.5000	264.0000	-3061.0000	-6497.0000	-11200.5000	1912.0000	9329.5000	-9690.0000	94.0000	5918.0000	83.5000	-1382.0000	0.0000	-4138.5000	-2754.5000	-6751.5000	10186.0000	1678.5000	0.0000	-6679.0000	2146.5000	3745.0000	8109.0000	270.0000	3718.0000	2917.5000	7538.0000	-3194.0000	-1161.5000	-6583.5000	3251.5000	3164.5000	0.0000	0.0000
333.9844	-1241.5000	255.0000	-3065.5000	-6497.0000	-11207.0000	1902.5000	9323.0000	-9690.5000	94.5000	5909.0000	81.5000	-1380.0000	0.0000	-4134.5000	-2757.5000	-6758.0000	10186.0000	1683.0000	0.0000	-6675.5000	2142.0000	3741.0000	8114.0000	281.5000	3718.5000	2916.5000	7541.5000	-3185.0000	-1158.5000	-6574.0000	3262.0000	3174.5000	0.0000	0.0000
335.9375	-1248.5000	245.0000	-3069.0000	-6498.0000	-11212.0000	1891.0000	9312.5000	-9687.5000	94.0000	5900.5000	77.5000	-1379.5000	0.0000	-4132.0000	-2761.0000	-6762.0000	10182.5000	1686.5000	0.0000	-6671.5000	2137.0000	3737.5000	8119.5000	292.0000	3719.5000	2916.5000	7546.0000	-3177.0000	-1155.0000	-6562.5000	3272.5000	3185.0000	0.0000	0.0000
337.8906	-1251.5000	240.0000	-3070.5000	-6499.5000	-11214.0000	1885.5000	9310.0000	-9685.5000	92.0000	5897.0000	75.0000	-1380.0000	0.0000	-4130.5000	-2762.0000	-6764.5000	10180.5000	1688.0000	0.0000	-6671.5000	2134.5000	3736.0000	8122.0000	297.5000	3720.0000	2915.5000	7548.0000	-3174.0000	-1152.0000	-6554.5000	3277.5000	3190.5000	0.0000	0.0000
339.8438	-1251.5000	241.0000	-3070.5000	-6499.5000	-11214.5000	1886.0000	9309.0000	-9686.0000	91.5000	5898.5000	77.0000	-1380.5000	0.0000	-4128.0000	-2762.0000	-6764.0000	10182.0000	1686.0000	0.0000	-6671.0000	2134.0000	3736.0000	8122.5000	297.0000	3720.0000	2916.0000	7548.0000	-3176.5000	-1152.5000	-6555.0000	3278.0000	3190.0000	0.0000	0.0000
341.7969	-1249.0000	244.5000	-3068.0000	-6499.0000	-11211.0000	1892.0000	9313.5000	-9686.5000	92.5000	5901.5000	82.5000	-1380.0000	0.0000	-4131.0000	-2760.5000	-6758.0000	10180.5000	1683.5000	0.0000	-6670.0000	2138.0000	3738.0000	8119.0000	292.0000	3718.5000	2917.0000	7545.0000	-3186.5000	-1153.0000	-6559.5000	3271.0000	3183.5000	0.0000	0.0000
343.7500	-1240.5000	254.0000	-3064.0000	-6498.0000	-11206.0000	1900.5000	9319.5000	-9689.0000	92.5000	5909.0000	91.5000	-1380.0000	0.0000	-4133.5000	-2759.0000	-6749.5000	10183.0000	1680.5000	0.0000	-6672.5000	2141.5000	3741.0000	8113.5000	281.0000	3717.5000	2918.5000	7542.5000	-3198.0000	-1156.0000	-6571.0000	3261.0000	3170.0000	0.0000	0.0000
345.7031	-1231.5000	261.0000	-3062.0000	-6497.0000	-11199.5000	1913.0000	9324.5000	-9689.5000	93.5000	5915.5000	101.0000	-1380.5000	0.0000	-4138.5000	-2756.0000	-6740.5000	10186.0000	1678.0000	0.0000	-6674.0000	2148.0000	3746.0000	8108.5000	268.0000	3715.5000	2921.5000	7538.0000	-3214.5000	-1159.5000	-6580.5000	3248.5000	3156.0000	0.0000	0.0000
347.6562	-1226.5000	267.5000	-3058.0000	-6496.5000	-11195.0000	1920.5000	9328.0000	-9690.5000	94.0000	5923.0000	107.0000	-1380.5000	0.0000	-4141.5000	-2753.5000	-6736.0000	10188.0000	1678.5000	0.0000	-6676.5000	2153.5000	3748.0000	8105.0000	261.0000	3714.0000	2921.5000	7535.0000	-3226.0000	-1161.5000	-6589.0000	3240.0000	3148.0000	0.0000	0.0000
349.6094	-1229.0000	266.5000	-3057.5000	-6496.5000	-11195.5000	1919.5000	9327.0000	-9690.0000	93.5000	5921.5000	112.0000	-1382.0000	0.0000	-4142.5000	-2754.0000	-6734.5000	10188.0000	1684.5000	0.0000	-6676.5000	2154.5000	3748.0000	8104.0000	261.5000	3712.0000	2921.5000	7536.0000	-3229.5000	-1161.5000	-6588.5000	3239.5000	3147.0000	0.0000	0.0000
351.5625	-1234.5000	260.0000	-3061.5000	-6497.0000	-11199.0000	1912.5000	9331.5000	-9689.0000	93.5000	5914.5000	113.0000	-1382.0000	0.0000	-4140.5000	-2758.5000	-6736.0000	10184.5000	1693.5000	0.0000	-6676.5000	2153.5000	3746.0000	8105.5000	268.0000	3713.5000	2921.5000	7536.5000	-3228.5000	-1160.0000	-6582.0000	3244.5000	3153.0000	0.0000	0.0000
353.5156	-1242.5000	251.5000	-3067.5000	-6500.0000	-11207.0000	1901.0000	9333.5000	-9688.5000	91.5000	5907.5000	112.0000	-1381.0000	0.0000	-4138.0000	-2761.0000	-6740.0000	10181.0000	1706.5000	0.0000	-6673.0000	2149.0000	3741.0000	8108.0000	279.0000	3713.0000	2918.5000	7539.5000	-3221.0000	-1157.0000	-6572.0000	3254.5000	3163.0000	0.0000	0.0000
355.4688	-1253.0000	240.0000	-3072.5000	-6500.0000	-11215.0000	1887.0000	9327.0000	-9689.5000	89.0000	5897.0000	109.0000	-1381.5000	0.0000	-4134.5000	-2766.0000	-6747.0000	10177.0000	1740.5000	0.0000	-6671.0000	2142.0000	3734.0000	8113.0000	292.0000	3713.0000	2914.5000	7543.0000	-3214.0000	-1154.5000	-6560.5000	3266.5000	3175.0000	0.0000	0.0000
357.4219	-1261.5000	233.0000	-3077.5000	-6502.0000	-11220.5000	1879.5000	9322.0000	-9691.0000	86.5000	5889.5000	106.5000	-1383.0000	0.0000	-4133.0000	-2771.0000	-6751.0000	10173.5000	1773.0000	0.0000	-6669.5000	2139.0000	3730.5000	8114.5000	301.0000	3712.0000	2913.5000	7544.5000	-3210.5000	-1152.5000	-6552.0000	3273.0000	3184.0000	0.0000	0.0000
359.3750	-1263.0000	230.5000	-3077.5000	-6503.0000	-11220.5000	1878.5000	9320.0000	-9690.5000	85.5000	5888.5000	110.5000	-1383.5000	0.0000	-4131.0000	-2771.0000	-6747.0000	10172.5000	1769.0000	0.0000	-6670.0000	2140.0000	3731.5000	8113.5000	304.5000	3713.0000	2914.5000	7544.0000	-3213.0000	-1152.5000	-6550.5000	3274.5000	3183.0000	0.0000	0.0000
361.3281	-1258.5000	234.5000	-3074.0000	-6502.5000	-11217.5000	1883.0000	9316.0000	-9690.5000	86.0000	5892.0000	117.5000	-1382.0000	0.0000	-4133.0000	-2770.0000	-6741.5000	10174.0000	1765.5000	0.0000	-6671.5000	2142.5000	3733.5000	8111.5000	300.0000	3711.5000	2914.0000	7543.5000	-3224.0000	-1154.0000	-6555.0000	3271.5000	3177.0000	0.0000	0.0000
363.2812	-1251.5000	242.5000	-3071.5000	-6501.5000	-11210.5000	1892.5000	9317.0000	-9691.0000	88.0000	5900.0000	128.0000	-1382.5000	0.0000	-4137.0000	-2767.5000	-6730.0000	10177.5000	1756.5000	0.0000	-6674.0000	2147.0000	3736.0000	8108.5000	291.0000	3710.5000	2916.0000	7540.0000	-3240.0000	-1157.0000	-6564.5000	3260.5000	3166.0000	0.0000	0.0000
365.2344	-1241.0000	253.5000	-3066.5000	-6498.0000	-11203.0000	1904.5000	9318.5000	-9690.5000	89.5000	5910.0000	140.0000	-1383.0000	0.0000	-4140.0000	-2762.5000	-6714.5000	10181.0000	1731.0000	0.0000	-6676.5000	2152.5000	3743.0000	8103.0000	279.5000	3711.5000	2918.5000	7535.0000	-3260.0000	-1160.5000	-6576.0000	3247.5000	3153.0000	0.0000	0.0000
367.1875	-1234.0000	261.0000	-3061.5000	-6497.0000	-11198.5000	1914.5000	9322.0000	-9691.0000	90.0000	5918.0000	150.0000	-1383.0000	0.0000	-4143.0000	-2759.5000	-6703.0000	10182.0000	1716.0000	0.0000	-6678.0000	2157.0000	3748.0000	8099.5000	270.0000	3709.5000	2922.0000	7532.0000	-3276.5000	-1162.0000	-6585.0000	3237.5000	3143.0000	0.0000	0.0000
369.1406	-1232.0000	262.0000	-3060.5000	-6496.5000	-11198.0000	1917.5000	9322.0000	-9691.0000	90.5000	5919.5000	154.5000	-1381.0000	0.0000	-4143.0000	-2759.5000	-6698.5000	10183.0000	1713.0000	0.0000	-6680.5000	2159.0000	3749.0000	8098.5000	269.0000	3711.0000	2920.5000	7533.0000	-3286.0000	-1164.5000	-6587.5000	3235.5000	3140.5000	0.0000	0.0000
371.0938	-1237.5000	257.5000	-3063.5000	-6495.5000	-11199.5000	1912.5000	9319.5000	-9689.5000	90.5000	5915.0000	157.0000	-1380.5000	0.0000	-4140.5000	-2760.0000	-6700.0000	10179.5000	1704.0000	0.0000	-6677.5000	2157.5000	3748.0000	8099.5000	275.5000	3712.5000	2920.5000	7535.0000	-3285.5000	-1163.0000	-6580.0000	3241.5000	3146.5000	0.0000	0.0000
373.0469	-1245.5000	249.0000	-3067.0000	-6496.0000	-11204.0000	1903.0000	9315.0000	-9689.5000	90.5000	5909.0000	155.5000	-1378.5000	0.0000	-4135.5000	-2763.0000	-6702.5000	10179.0000	1688.0000	0.0000	-6674.0000	2153.0000	3746.0000	8103.5000	289.0000	3714.5000	2918.5000	7541.0000	-3282.0000	-1159.0000	-6569.5000	3254.0000	3158.5000	0.0000	0.0000
375.0000	-1254.0000	239.0000	-3072.5000	-6495.5000	-11211.0000	1890.0000	9307.0000	-9689.0000	88.5000	5901.5000	152.5000	-1379.0000	0.0000	-4130.0000	-2767.0000	-6707.5000	10176.5000	1680.0000	0.0000	-6671.5000	2148.5000	3743.0000	8109.5000	304.5000	3716.0000	2917.5000	7545.0000	-3273.5000	-1154.0000	-6554.5000	3268.0000	3172.5000	0.0000	0.0000
376.9531	-1261.5000	231.0000	-3077.0000	-6498.5000	-11217.0000	1880.0000	9303.5000	-9689.0000	87.0000	5892.5000	150.0000	-1379.5000	0.0000	-4127.0000	-2771.0000	-6710.0000	10173.0000	1697.5000	0.0000	-6670.5000	2141.5000	3739.5000	8112.0000	315.5000	3717.5000	2916.0000	7548.5000	-3270.0000	-1151.0000	-6544.0000	3278.5000	3183.0000	0.0000	0.0000
378.9062	-1264.0000	228.5000	-3078.0000	-6499.5000	-11218.0000	1876.5000	9304.0000	-9690.0000	85.5000	5889.5000	151.5000	-1378.5000	0.0000	-4125.0000	-2772.0000	-6709.5000	10172.5000	1701.0000	0.0000	-6670.5000	2139.0000	3738.0000	8112.5000	320.0000	3717.5000	2917.0000	7548.5000	-3275.0000	-1151.0000	-6540.5000	3281.5000	3188.0000	0.0000	0.0000
380.8594	-1261.0000	231.5000	-3077.0000	-6498.5000	-11216.5000	1882.0000	9303.0000	-9689.0000	88.0000	5892.5000	155.5000	-1378.5000	0.0000	-4126.5000	-2769.0000	-6702.0000	10174.0000	1695.0000	0.0000	-6671.0000	2140.0000	3740.0000	8111.5000	315.5000	3717.5000	2918.5000	7548.0000	-3289.0000	-1151.5000	-6542.5000	3276.5000	3183.5000	0.0000	0.0000
382.8125	-1254.5000	238.0000	-3073.0000	-6498.0000	-11210.0000	1890.5000	9306.5000	-9689.5000	88.5000	5900.0000	163.5000	-1377.5000	0.0000	-4128.5000	-2767.5000	-6689.5000	10174.0000	1695.5000	0.0000	-6672.5000	2142.5000	3743.5000	8106.5000	305.5000	3716.0000	2918.5000	7543.5000	-3307.5000	-1154.5000	-6551.0000	3267.0000	3173.0000	0.0000	0.0000
384.7656	-1245.5000	248.5000	-3067.5000	-6494.5000	-11200.5000	1904.0000	9309.0000	-9690.0000	88.5000	5908.5000	173.0000	-1375.0000	0.0000	-4132.0000	-2764.5000	-6671.0000	10178.5000	1693.0000	0.0000	-6676.5000	2146.5000	3750.0000	8101.5000	291.0000	3716.0000	2920.0000	7538.0000	-3332.5000	-1161.5000	-6565.5000	3253.0000	3159.5000	0.0000	0.0000
386.7188	-1237.5000	257.5000	-3063.0000	-6491.0000	-11194.0000	1915.5000	9311.5000	-9689.5000	91.0000	5915.5000	180.5000	-1374.5000	0.0000	-4135.5000	-2761.0000	-6655.5000	10181.5000	1687.0000	0.0000	-6679.5000	2150.0000	3754.0000	8098.5000	281.0000	3715.0000	2921.0000	7535.5000	-3360.0000	-1165.0000	-6576.5000	3240.5000	3147.0000	0.0000	0.0000
388.6719	-1233.5000	259.5000	-3060.5000	-6490.5000	-11192.0000	1920.5000	9312.0000	-9688.5000	92.0000	5920.5000	185.0000	-1372.5000	0.0000	-4135.5000	-2759.5000	-6643.5000	10182.0000	1675.5000	0.0000	-6680.0000	2152.5000	3756.0000	8096.0000	276.0000	3714.0000	2922.0000	7535.5000	-3377.0000	-1164.5000	-6578.5000	3235.5000	3142.5000	0.0000	0.0000
390.6250	-1236.5000	257.0000	-3062.5000	-6490.5000	-11195.0000	1917.5000	9310.5000	-9689.0000	91.5000	5917.5000	184.0000	-1368.5000	0.0000	-4133.0000	-2761.0000	-6636.0000	10180.5000	1665.5000	0.0000	-6680.0000	2151.0000	3755.5000	8095.5000	279.5000	3716.0000	2922.0000	7538.0000	-3374.5000	-1164.0000	-6574.0000	3237.0000	3147.0000	0.0000	0.0000
392.5781	-1244.5000	249.0000	-3066.5000	-6492.0000	-11198.5000	1907.5000	9306.5000	-9689.5000	90.0000	5910.5000	181.0000	-1371.5000	0.0000	-4129.5000	-2764.0000	-6634.0000	10177.5000	1659.0000	0.0000	-6679.0000	2148.0000	3752.5000	8099.0000	290.5000	3717.0000	2921.5000	7539.5000	-3359.5000	-1162.0000	-6563.5000	3247.5000	3158.0000	0.0000	0.0000
394.5312	-1255.0000	237.5000	-3072.0000	-6494.0000	-11207.5000	1894.5000	9300.0000	-9690.0000	86.5000	5901.5000	175.5000	-1372.0000	0.0000	-4124.0000	-2769.0000	-6639.0000	10174.0000	1664.5000	0.0000	-6676.5000	2143.5000	3750.5000	8103.5000	303.0000	3718.5000	2919.5000	7544.5000	-3344.0000	-1158.0000	-6548.5000	3261.0000	3173.5000	0.0000	0.0000
396.4844	-1263.5000	228.0000	-3077.5000	-6496.5000	-11213.5000	1884.0000	9295.5000	-9692.0000	83.5000	5892.5000	168.5000	-1373.0000	0.0000	-4119.0000	-2773.5000	-6642.5000	10170.0000	1670.0000	0.0000	-6673.0000	2139.0000	3747.0000	8106.5000	314.5000	3721.5000	2918.0000	7547.5000	-3332.5000	-1154.5000	-6534.0000	3272.0000	3187.0000	0.0000	0.0000
398.4375	-1267.0000	224.5000	-3078.5000	-6498.0000	-11217.5000	1879.0000	9292.0000	-9693.0000	82.0000	5889.0000	166.5000	-1371.0000	0.0000	-4117.0000	-2774.0000	-6643.0000	10169.5000	1673.5000	0.0000	-6672.5000	2138.0000	3744.5000	8108.0000	319.0000	3721.5000	2918.5000	7549.0000	-3330.5000	-1152.5000	-6528.0000	3275.5000	3193.5000	0.0000	0.0000
400.3906	-1266.0000	224.0000	-3080.5000	-6497.5000	-11216.5000	1881.0000	9293.0000	-9694.0000	82.5000	5889.5000	169.5000	-1370.5000	0.0000	-4118.0000	-2774.5000	-6637.0000	10169.5000	1677.0000	0.0000	-6674.5000	2139.5000	3746.5000	8104.5000	315.0000	3721.0000	2919.5000	7548.0000	-3333.5000	-1154.0000	-6530.5000	3274.0000	3193.0000	0.0000	0.0000
402.3438	-1259.5000	230.0000	-3076.5000	-6496.0000	-11211.0000	1887.5000	9297.0000	-9691.5000	83.5000	5894.0000	175.5000	-1370.0000	0.0000	-4119.0000	-2773.0000	-6629.5000	10171.5000	1671.0000	0.0000	-6677.5000	2142.5000	3751.5000	8102.0000	306.0000	3721.5000	2920.0000	7543.5000	-3346.0000	-1156.0000	-6537.0000	3263.5000	3183.0000	0.0000	0.0000
404.2969	-1250.5000	240.5000	-3071.5000	-6495.0000	-11202.5000	1902.0000	9304.0000	-9693.5000	84.5000	5902.5000	184.5000	-1368.5000	0.0000	-4124.0000	-2769.0000	-6620.5000	10173.5000	1667.5000	0.0000	-6679.5000	2144.5000	3756.5000	8096.0000	292.0000	3720.0000	2921.0000	7540.0000	-3364.0000	-1160.5000	-6549.0000	3248.0000	3172.0000	0.0000	0.0000
406.2500	-1242.0000	250.5000	-3066.0000	-6492.5000	-11196.5000	1914.0000	9309.5000	-9692.0000	85.5000	5912.5000	192.0000	-1369.0000	0.0000	-4127.0000	-2766.0000	-6612.5000	10178.0000	1667.5000	0.0000	-6683.5000	2149.5000	3761.0000	8089.5000	277.5000	3718.5000	2923.0000	7535.0000	-3381.5000	-1166.0000	-6563.0000	3233.0000	3160.5000	0.0000	0.0000
408.2031	-1238.5000	254.5000	-3063.5000	-6492.5000	-11193.5000	1920.5000	9314.0000	-9692.0000	86.5000	5916.0000	195.0000	-1369.5000	0.0000	-4129.5000	-2765.5000	-6608.5000	10179.5000	1672.5000	0.0000	-6686.0000	2150.5000	3764.0000	8087.0000	269.0000	3718.0000	2923.0000	7532.5000	-3389.0000	-1169.5000	-6568.0000	3224.5000	3158.5000	0.0000	0.0000
410.1562	-1239.0000	252.5000	-3064.5000	-6493.5000	-11194.5000	1917.5000	9314.5000	-9692.5000	85.5000	5915.0000	194.0000	-1370.5000	0.0000	-4128.0000	-2767.0000	-6612.5000	10177.5000	1681.5000	0.0000	-6687.5000	2148.0000	3763.5000	8086.0000	270.0000	3717.5000	2922.5000	7535.0000	-3387.5000	-1170.0000	-6564.5000	3227.5000	3165.0000	0.0000	0.0000
412.1094	-1247.5000	244.5000	-3069.5000	-6494.5000	-11200.0000	1909.0000	9308.0000	-9693.5000	84.0000	5909.0000	189.0000	-1371.0000	0.0000	-4123.0000	-2770.5000	-6621.5000	10174.0000	1696.5000	0.0000	-6687.0000	2144.5000	3762.5000	8089.0000	278.5000	3720.5000	2920.5000	7537.0000	-3381.0000	-1167.5000	-6554.0000	3234.5000	3179.5000	0.0000	0.0000
414.0625	-1257.5000	234.5000	-3076.5000	-6497.0000	-11208.0000	1897.0000	9304.0000	-9694.5000	82.0000	5899.0000	182.0000	-1374.5000	0.0000	-4118.5000	-2775.5000	-6632.0000	10171.0000	1706.0000	0.0000	-6683.5000	2138.5000	3759.5000	8092.0000	291.0000	3721.0000	2920.5000	7542.5000	-3364.5000	-1162.5000	-6538.5000	3247.0000	3195.0000	0.0000	0.0000
416.0156	-1267.0000	223.5000	-3082.0000	-6500.0000	-11214.0000	1885.0000	9299.0000	-9695.0000	78.0000	5888.5000	173.5000	-1376.5000	0.0000	-4114.0000	-2778.5000	-6643.5000	10169.5000	1722.5000	0.0000	-6680.5000	2136.0000	3757.5000	8095.5000	303.0000	3723.5000	2919.0000	7546.0000	-3350.0000	-1159.0000	-6523.0000	3262.0000	3202.5000	0.0000	0.0000
417.9688	-1272.5000	218.5000	-3084.5000	-6502.5000	-11217.5000	1877.0000	9296.5000	-9696.0000	78.0000	5884.0000	171.5000	-1379.5000	0.0000	-4110.0000	-2781.5000	-6652.0000	10168.0000	1738.0000	0.0000	-6679.5000	2135.0000	3757.5000	8098.5000	309.5000	3726.0000	2920.0000	7549.0000	-3341.0000	-1154.0000	-6511.5000	3270.0000	3186.0000	0.0000	0.0000
419.9219	-1270.0000	220.5000	-3082.0000	-6499.0000	-11214.5000	1879.5000	9300.0000	-9693.0000	79.5000	5886.5000	174.5000	-1377.5000	0.0000	-4107.5000	-2779.0000	-6655.0000	10169.5000	1742.0000	0.0000	-6678.5000	2136.0000	3762.5000	8100.5000	308.0000	3729.0000	2922.0000	7551.0000	-3341.0000	-1152.0000	-6511.0000	3271.0000	3128.0000	0.0000	0.0000
421.8750	-1261.0000	230.5000	-3075.5000	-6493.5000	-11205.5000	1892.0000	9308.0000	-9689.5000	84.5000	5895.5000	182.5000	-1373.5000	0.0000	-4105.5000	-2773.5000	-6650.5000	10175.0000	1752.0000	0.0000	-6678.0000	2142.5000	3760.0000	8101.5000	301.0000	3730.5000	2926.0000	7550.5000	-3345.0000	-1154.0000	-6513.5000	3264.5000	3021.5000	0.0000	0.0000
423.8281	-1247.5000	245.0000	-3065.0000	-6488.0000	-11194.5000	1907.5000	9317.0000	-9685.0000	91.5000	5909.5000	193.0000	-1369.0000	0.0000	-4106.0000	-2766.0000	-6644.0000	10184.0000	1768.0000	0.0000	-6676.0000	2152.0000	3762.5000	8101.5000	289.0000	3733.0000	2931.5000	7550.0000	-3353.0000	-1153.5000	-6521.0000	3254.5000	2877.0000	0.0000	0.0000
425.7812	-1231.5000	259.5000	-3054.5000	-6481.5000	-11181.5000	1927.0000	9326.5000	-9679.5000	98.0000	5922.5000	207.0000	-1364.5000	0.0000	-4105.5000	-2758.5000	-6633.0000	10189.5000	1777.5000	0.0000	-6673.5000	2160.0000	3774.5000	8101.0000	274.5000	3735.0000	2938.0000	7549.0000	-3364.0000	-1154.0000	-6528.5000	3242.5000	2727.0000	0.0000	0.0000
427.7344	-1223.0000	270.0000	-3045.5000	-6475.5000	-11173.5000	1940.0000	9335.0000	-9674.5000	102.5000	5932.0000	217.5000	-1359.5000	0.0000	-4104.5000	-2752.0000	-6626.5000	10195.0000	1784.0000	0.0000	-6672.5000	2168.5000	3782.0000	8103.0000	265.5000	3739.5000	2942.5000	7549.5000	-3370.0000	-1154.0000	-6530.5000	3236.0000	2598.5000	0.0000	0.0000
429.6875	-1219.0000	274.0000	-3041.5000	-6470.0000	-11168.5000	1943.0000	9340.5000	-9671.5000	107.0000	5936.5000	220.0000	-1356.5000	0.0000	-4100.5000	-2748.5000	-6625.5000	10201.0000	1782.5000	0.0000	-6668.5000	2173.0000	3786.0000	8108.5000	264.5000	3743.5000	2947.0000	7553.5000	-3370.5000	-1150.5000	-6523.0000	3240.0000	2493.0000	0.0000	0.0000
431.6406	-1222.0000	270.5000	-3042.0000	-6468.5000	-11168.0000	1939.5000	9339.0000	-9668.5000	109.5000	5935.0000	218.5000	-1354.5000	0.0000	-4092.5000	-2747.0000	-6630.0000	10201.0000	1786.5000	0.0000	-6664.5000	2174.5000	3789.0000	8112.0000	270.5000	3750.0000	2948.5000	7560.5000	-3358.5000	-1144.5000	-6508.0000	3251.0000	2413.0000	0.0000	0.0000
433.5938	-1229.0000	262.0000	-3045.0000	-6468.0000	-11172.5000	1929.5000	9336.5000	-9666.5000	113.0000	5928.5000	215.0000	-1353.0000	0.0000	-4085.5000	-2746.5000	-6636.5000	10200.5000	1794.5000	0.0000	-6657.5000	2175.5000	3787.5000	8118.5000	279.0000	3754.0000	2951.5000	7567.5000	-3339.5000	-1138.0000	-6486.5000	3267.0000	2345.5000	0.0000	0.0000
435.5469	-1236.5000	253.0000	-3048.0000	-6467.0000	-11177.5000	1918.0000	9334.5000	-9663.0000	111.5000	5922.5000	208.0000	-1350.0000	0.0000	-4077.5000	-2746.5000	-6644.5000	10202.5000	1801.5000	0.0000	-6653.5000	2173.0000	3785.0000	8127.0000	286.0000	3760.5000	2953.5000	7577.5000	-3322.5000	-1129.5000	-6463.0000	3286.0000	2279.0000	0.0000	0.0000
437.5000	-1241.0000	249.0000	-3050.0000	-6464.0000	-11178.5000	1914.0000	9334.0000	-9662.5000	115.0000	5919.0000	205.5000	-1348.5000	0.0000	-4071.0000	-2746.0000	-6648.0000	10203.5000	1801.0000	0.0000	-6647.5000	2174.0000	3785.5000	8133.5000	285.5000	3766.0000	2956.5000	7584.0000	-3310.5000	-1122.0000	-6444.5000	3298.0000	2210.0000	0.0000	0.0000
439.4531	-1238.5000	251.0000	-3048.0000	-6463.5000	-11176.5000	1914.5000	9336.5000	-9660.5000	117.5000	5920.0000	206.5000	-1346.5000	0.0000	-4068.0000	-2744.5000	-6645.5000	10205.5000	1802.0000	0.0000	-6644.5000	2177.0000	3790.5000	8136.0000	277.5000	3769.5000	2959.0000	7587.0000	-3308.0000	-1120.5000	-6432.0000	3301.5000	2145.0000	0.0000	0.0000
441.4062	-1231.0000	259.5000	-3042.0000	-6460.0000	-11169.0000	1922.0000	9341.5000	-9657.5000	119.5000	5929.0000	212.5000	-1343.5000	0.0000	-4067.0000	-2741.0000	-6637.5000	10208.5000	1802.0000	0.0000	-6642.5000	2182.5000	3793.5000	8137.0000	255.0000	3770.0000	2962.5000	7586.0000	-3310.0000	-1123.0000	-6425.5000	3297.0000	2072.0000	0.0000	0.0000
443.3594	-1219.5000	271.5000	-3034.0000	-6454.0000	-11160.0000	1938.5000	9349.5000	-9654.0000	123.0000	5939.5000	221.0000	-1340.0000	0.0000	-4068.0000	-2734.0000	-6626.0000	10214.0000	1798.0000	0.0000	-6643.0000	2188.5000	3796.5000	8134.0000	223.0000	3771.5000	2965.5000	7584.0000	-3319.0000	-1125.0000	-6422.5000	3286.0000	1995.5000	0.0000	0.0000
445.3125	-1207.5000	285.5000	-3025.0000	-6449.5000	-11149.0000	1954.0000	9359.0000	-9651.5000	129.0000	5952.5000	231.5000	-1336.0000	0.0000	-4070.5000	-2729.0000	-6614.0000	10219.5000	1801.0000	0.0000	-6646.0000	2196.0000	3802.0000	8130.5000	187.0000	3770.5000	2969.5000	7580.5000	-3334.0000	-1128.0000	-6421.5000	3272.5000	1922.0000	0.0000	0.0000
447.2656	-1198.5000	295.0000	-3018.5000	-6446.5000	-11140.5000	1966.0000	9365.5000	-9649.0000	131.5000	5960.5000	238.5000	-1333.5000	0.0000	-4072.0000	-2723.5000	-6603.5000	10224.0000	1808.5000	0.0000	-6647.0000	2201.5000	3807.5000	8127.0000	153.0000	3772.0000	2972.0000	7578.0000	-3345.0000	-1132.5000	-6411.5000	3262.5000	1859.5000	0.0000	0.0000
449.2188	-1196.0000	297.0000	-3016.5000	-6445.0000	-11134.5000	1968.5000	9368.0000	-9647.0000	133.0000	5962.0000	241.5000	-1332.0000	0.0000	-4070.0000	-2722.0000	-6601.5000	10225.5000	1818.0000	0.0000	-6646.0000	2205.0000	3808.5000	8129.5000	125.5000	3772.5000	2973.0000	7577.5000	-3344.0000	-1131.5000	-6390.0000	3262.5000	1808.5000	0.0000	0.0000
451.1719	-1199.0000	293.5000	-3017.5000	-6444.0000	-11137.5000	1963.5000	9366.0000	-9646.5000	132.5000	5960.5000	236.5000	-1331.5000	0.0000	-4067.0000	-2721.5000	-6605.0000	10226.0000	1828.5000	0.0000	-6643.5000	2204.5000	3808.5000	8132.5000	109.5000	3775.0000	2974.0000	7581.5000	-3334.5000	-1129.0000	-6356.0000	3272.0000	1768.0000	0.0000	0.0000
453.1250	-1209.0000	283.5000	-3023.5000	-6445.0000	-11145.5000	1950.0000	9360.0000	-9648.5000	131.0000	5952.0000	229.0000	-1332.5000	0.0000	-4064.0000	-2724.5000	-6610.0000	10221.5000	1840.5000	0.0000	-6641.5000	2202.0000	3806.0000	8139.0000	115.5000	3778.0000	2973.5000	7588.0000	-3315.5000	-1125.5000	-6314.0000	3289.5000	1739.5000	0.0000	0.0000
455.0781	-1221.5000	269.5000	-3031.0000	-6448.0000	-11152.5000	1936.5000	9354.5000	-9651.0000	129.0000	5941.0000	220.0000	-1335.0000	0.0000	-4057.5000	-2728.5000	-6619.5000	10218.5000	1852.0000	0.0000	-6638.5000	2196.5000	3799.5000	8145.0000	117.0000	3781.5000	2973.0000	7593.0000	-3292.0000	-1119.5000	-6263.5000	3307.0000	1724.5000	0.0000	0.0000
457.0312	-1228.0000	263.0000	-3035.5000	-6451.0000	-11157.0000	1926.5000	9351.5000	-9651.0000	129.0000	5933.5000	213.5000	-1335.5000	0.0000	-4051.0000	-2730.5000	-6625.5000	10218.5000	1862.0000	0.0000	-6634.5000	2194.5000	3797.5000	8151.0000	71.0000	3784.5000	2973.0000	7599.0000	-3270.5000	-1114.5000	-6216.5000	3319.5000	1714.0000	0.0000	0.0000
458.9844	-1228.5000	261.0000	-3034.5000	-6450.5000	-11157.5000	1924.0000	9351.5000	-9649.0000	130.0000	5931.0000	213.0000	-1333.0000	0.0000	-4050.5000	-2730.5000	-6624.0000	10219.5000	1868.0000	0.0000	-6633.0000	2195.5000	3800.5000	8155.0000	2.5000	3787.0000	2975.5000	7603.0000	-3258.5000	-1113.5000	-6176.5000	3321.0000	1700.5000	0.0000	0.0000
460.9375	-1224.5000	266.0000	-3031.0000	-6448.0000	-11153.5000	1929.5000	9355.5000	-9648.0000	132.5000	5937.5000	216.0000	-1331.5000	0.0000	-4049.5000	-2728.0000	-6621.0000	10223.0000	1870.5000	0.0000	-6634.0000	2199.0000	3807.0000	8154.5000	-70.0000	3788.5000	2976.0000	7602.0000	-3253.0000	-1114.0000	-6145.0000	3308.5000	1686.5000	0.0000	0.0000
462.8906	-1214.5000	276.0000	-3024.0000	-6444.5000	-11145.0000	1943.0000	9363.0000	-9645.0000	136.0000	5944.5000	223.0000	-1330.0000	0.0000	-4054.0000	-2724.0000	-6612.5000	10225.0000	1870.5000	0.0000	-6636.5000	2202.5000	3814.5000	8153.0000	-140.0000	3788.0000	2979.0000	7598.0000	-3257.5000	-1117.5000	-6121.5000	3282.0000	1669.5000	0.0000	0.0000
464.8438	-1202.5000	291.5000	-3015.5000	-6439.5000	-11134.0000	1958.0000	9371.0000	-9643.0000	140.0000	5958.5000	234.0000	-1330.0000	0.0000	-4057.0000	-2718.5000	-6602.0000	10230.0000	1868.5000	0.0000	-6639.5000	2207.5000	3820.0000	8149.0000	-203.5000	3788.0000	2983.0000	7593.0000	-3273.5000	-1123.5000	-6110.0000	3243.0000	1659.0000	0.0000	0.0000
466.7969	-1191.5000	302.5000	-3006.5000	-6434.5000	-11125.0000	1971.5000	9379.0000	-9640.5000	145.0000	5969.0000	242.5000	-1325.5000	0.0000	-4059.5000	-2712.0000	-6595.0000	10234.5000	1868.5000	0.0000	-6641.5000	2214.0000	3828.5000	8144.5000	-251.0000	3788.0000	2984.5000	7589.0000	-3296.5000	-1126.5000	-6104.0000	3200.5000	1649.5000	0.0000	0.0000
468.7500	-1186.0000	311.5000	-3001.0000	-6431.0000	-11118.5000	1979.5000	9384.5000	-9636.0000	149.0000	5974.5000	248.0000	-1322.5000	0.0000	-4057.0000	-2707.0000	-6593.0000	10237.5000	1872.5000	0.0000	-6640.0000	2218.0000	3837.0000	8145.0000	-285.5000	3791.0000	2988.0000	7590.0000	-3328.5000	-1126.0000	-6098.5000	3157.5000	1646.0000	0.0000	0.0000
470.7031	-1184.0000	314.0000	-2998.0000	-6425.5000	-11115.0000	1979.0000	9389.0000	-9631.5000	153.5000	5976.5000	249.0000	-1316.5000	0.0000	-4049.5000	-2702.5000	-6592.5000	10242.0000	1881.5000	0.0000	-6636.0000	2221.5000	3842.0000	8153.0000	-306.0000	3798.0000	2993.5000	7597.5000	-3379.5000	-1119.0000	-6097.0000	3114.5000	1648.0000	0.0000	0.0000
472.6562	-1186.0000	313.5000	-2996.0000	-6420.5000	-11114.5000	1976.5000	9393.5000	-9624.5000	159.5000	5975.5000	251.0000	-1309.0000	0.0000	-4039.0000	-2698.0000	-6594.5000	10248.5000	1894.5000	0.0000	-6625.5000	2225.5000	3848.0000	8165.5000	-309.0000	3807.5000	3001.0000	7610.0000	-3469.0000	-1108.0000	-6095.0000	3069.0000	1650.0000	0.0000	0.0000
474.6094	-1188.0000	311.0000	-2993.5000	-6414.0000	-11113.0000	1971.5000	9395.5000	-9616.5000	166.5000	5974.5000	250.5000	-1301.0000	0.0000	-4024.5000	-2692.0000	-6597.5000	10255.0000	1913.5000	0.0000	-6611.5000	2230.5000	3857.0000	8182.0000	-301.0000	3820.5000	3010.5000	7627.0000	-3603.0000	-1092.5000	-6089.0000	3021.0000	1650.5000	0.0000	0.0000
476.5625	-1185.0000	312.5000	-2990.0000	-6407.0000	-11108.5000	1970.0000	9403.5000	-9606.5000	174.5000	5976.0000	253.0000	-1291.0000	0.0000	-4010.0000	-2685.0000	-6597.0000	10264.0000	1932.0000	0.0000	-6599.0000	2238.0000	3867.0000	8198.5000	-288.0000	3834.5000	3019.5000	7642.5000	-3792.5000	-1076.5000	-6087.0000	2972.0000	1665.0000	0.0000	0.0000
478.5156	-1177.0000	324.0000	-2979.5000	-6394.5000	-11100.0000	1976.5000	9420.0000	-9595.5000	186.5000	5985.0000	261.0000	-1279.5000	0.0000	-3994.0000	-2673.5000	-6588.0000	10274.5000	1946.5000	0.0000	-6586.0000	2248.5000	3881.5000	8212.5000	-277.0000	3848.5000	3032.5000	7656.0000	-4033.5000	-1061.0000	-6087.0000	2924.5000	1648.5000	0.0000	0.0000
480.4688	-1163.0000	341.0000	-2965.5000	-6381.0000	-11084.0000	1992.0000	9430.5000	-9582.0000	201.0000	6002.0000	275.0000	-1266.0000	0.0000	-3981.5000	-2660.0000	-6573.5000	10288.5000	1963.5000	0.0000	-6573.5000	2261.0000	3896.0000	8225.5000	-269.5000	3862.0000	3046.5000	7667.5000	-4299.0000	-1049.5000	-6092.5000	2883.0000	1606.5000	0.0000	0.0000
482.4219	-1142.5000	364.5000	-2947.5000	-6366.0000	-11065.5000	2015.0000	9446.0000	-9569.0000	215.0000	6020.5000	295.0000	-1251.5000	0.0000	-3971.0000	-2644.0000	-6554.5000	10303.5000	1977.0000	0.0000	-6564.5000	2278.0000	3914.5000	8234.0000	-267.0000	3873.5000	3060.0000	7676.5000	-4601.5000	-1041.5000	-6090.5000	2843.0000	1560.0000	0.0000	0.0000
484.3750	-1118.5000	389.0000	-2925.5000	-6349.0000	-11043.0000	2042.5000	9467.5000	-9553.0000	230.5000	6042.5000	316.5000	-1237.5000	0.0000	-3963.5000	-2626.5000	-6532.0000	10320.0000	1991.0000	0.0000	-6554.5000	2294.0000	3932.0000	8239.5000	-264.0000	3883.5000	3075.0000	7683.0000	-4926.0000	-1035.0000	-6076.0000	2788.0000	1509.5000	0.0000	0.0000
486.3281	-1096.5000	414.5000	-2908.0000	-6336.5000	-11025.5000	2066.5000	9493.5000	-9539.5000	245.0000	6065.5000	336.0000	-1225.5000	0.0000	-3957.5000	-2610.5000	-6514.0000	10334.0000	2004.0000	0.0000	-6547.5000	2309.0000	3948.5000	8245.5000	-258.5000	3892.0000	3087.5000	7688.5000	-5228.5000	-1028.5000	-6037.5000	2724.0000	1460.5000	0.0000	0.0000
488.2812	-1084.5000	429.5000	-2896.0000	-6326.5000	-11012.5000	2081.0000	9520.0000	-9531.5000	256.5000	6078.0000	348.0000	-1216.0000	0.0000	-3951.5000	-2601.0000	-6503.5000	10343.0000	2017.0000	0.0000	-6540.5000	2318.5000	3963.0000	8252.0000	-249.0000	3899.0000	3097.0000	7694.0000	-5479.0000	-1023.5000	-5965.5000	2661.0000	1423.0000	0.0000	0.0000
490.2344	-1077.0000	436.5000	-2890.5000	-6319.0000	-11005.5000	2085.5000	9515.5000	-9523.5000	264.5000	6084.5000	354.0000	-1207.5000	0.0000	-3941.0000	-2593.0000	-6499.5000	10350.0000	2031.5000	0.0000	-6533.0000	2325.0000	3970.5000	8261.0000	-229.5000	3907.0000	3105.0000	7703.0000	-5686.0000	-1014.5000	-5872.0000	2604.0000	1394.0000	0.0000	0.0000
492.1875	-1079.0000	435.5000	-2889.0000	-6314.5000	-11005.0000	2082.5000	9516.5000	-9518.5000	269.0000	6084.5000	352.0000	-1202.0000	0.0000	-3930.5000	-2590.0000	-6501.5000	10355.0000	2046.0000	0.0000	-6523.0000	2328.5000	3975.0000	8271.5000	-203.5000	3915.5000	3112.0000	7715.5000	-5842.0000	-1002.5000	-5775.0000	2551.5000	1365.0000	0.0000	0.0000
494.1406	-1085.5000	426.5000	-2891.5000	-6312.0000	-11010.0000	2074.0000	9519.0000	-9516.5000	271.5000	6078.0000	348.5000	-1197.0000	0.0000	-3920.0000	-2589.0000	-6508.0000	10358.0000	2061.0000	0.0000	-6514.5000	2329.5000	3977.0000	8283.5000	-177.0000	3923.0000	3116.0000	7728.0000	-5954.0000	-992.0000	-5677.0000	2510.0000	1342.0000	0.0000	0.0000
496.0938	-1093.5000	418.0000	-2894.0000	-6312.0000	-11015.5000	2062.0000	9514.5000	-9515.5000	269.5000	6071.5000	342.5000	-1195.0000	0.0000	-3912.0000	-2589.0000	-6518.5000	10358.0000	2077.5000	0.0000	-6509.0000	2328.5000	3977.5000	8292.0000	-151.0000	3926.5000	3118.5000	7737.5000	-6042.5000	-982.0000	-5562.5000	2469.5000	1328.5000	0.0000	0.0000
498.0469	-1097.5000	410.5000	-2898.0000	-6312.5000	-11016.0000	2056.5000	9511.5000	-9514.5000	271.5000	6067.0000	337.5000	-1193.5000	0.0000	-3909.5000	-2590.5000	-6527.0000	10357.0000	2088.5000	0.0000	-6506.5000	2326.0000	3982.0000	8298.0000	-129.5000	3929.0000	3120.0000	7741.0000	-6116.0000	-978.0000	-5457.0000	2431.0000	1318.0000	0.0000	0.0000
500.0000	-1095.5000	409.0000	-2897.0000	-6313.0000	-11016.5000	2057.0000	9511.5000	-9514.0000	272.0000	6068.0000	336.0000	-1191.5000	0.0000	-3910.0000	-2590.5000	-6536.5000	10359.5000	2099.0000	0.0000	-6505.0000	2326.0000	3984.0000	8297.5000	-116.0000	3927.5000	3121.5000	7742.0000	-6184.5000	-978.0000	-5373.0000	2409.5000	1301.5000	0.0000	0.0000
501.9531	-1092.5000	412.0000	-2895.0000	-6311.5000	-11014.0000	2063.0000	9513.0000	-9515.0000	272.5000	6071.5000	339.0000	-1193.0000	0.0000	-3914.0000	-2590.0000	-6544.5000	10358.5000	2105.5000	0.0000	-6510.0000	2327.5000	3986.0000	8293.5000	-109.5000	3924.0000	3119.5000	7736.5000	-6276.0000	-984.0000	-5263.0000	2409.0000	1281.5000	0.0000	0.0000
503.9062	-1083.0000	422.0000	-2887.5000	-6307.5000	-11005.0000	2077.0000	9520.0000	-9512.0000	274.5000	6080.0000	345.5000	-1192.0000	0.0000	-3920.0000	-2585.5000	-6547.5000	10362.5000	2113.5000	0.0000	-6513.0000	2330.5000	3992.0000	8287.5000	-101.0000	3921.0000	3121.5000	7732.0000	-6386.5000	-989.0000	-5217.5000	2408.0000	1260.0000	0.0000	0.0000
505.8594	-1072.0000	434.0000	-2878.5000	-6305.5000	-10995.5000	2091.5000	9526.0000	-9509.5000	278.0000	6092.5000	353.0000	-1190.0000	0.0000	-3924.0000	-2580.5000	-6547.5000	10365.0000	2123.0000	0.0000	-6514.5000	2335.0000	4000.5000	8282.5000	-94.0000	3918.5000	3123.0000	7726.5000	-6472.5000	-994.5000	-5200.5000	2401.5000	1227.0000	0.0000	0.0000
507.8125	-1066.5000	440.0000	-2875.0000	-6304.5000	-10991.5000	2100.0000	9528.0000	-9508.5000	279.0000	6099.0000	356.0000	-1188.5000	0.0000	-3927.5000	-2579.0000	-6548.5000	10368.0000	2135.5000	0.0000	-6517.0000	2337.5000	4005.0000	8278.5000	-77.0000	3915.5000	3122.0000	7721.5000	-6515.0000	-998.5000	-5185.5000	2404.0000	1193.0000	0.0000	0.0000
509.7656	-1070.0000	437.5000	-2877.0000	-6306.0000	-10994.0000	2096.0000	9524.0000	-9511.5000	277.0000	6096.5000	352.5000	-1192.0000	0.0000	-3929.0000	-2582.0000	-6550.5000	10364.5000	2148.5000	0.0000	-6519.0000	2334.5000	4005.5000	8277.5000	-47.5000	3914.0000	3122.5000	7720.0000	-6512.0000	-999.0000	-5161.5000	2415.0000	1167.0000	0.0000	0.0000
511.7188	-1079.0000	428.0000	-2884.5000	-6310.5000	-11002.0000	2084.5000	9517.0000	-9515.5000	271.0000	6085.5000	342.0000	-1194.5000	0.0000	-3931.0000	-2588.0000	-6555.5000	10359.0000	2163.5000	0.0000	-6520.5000	2328.5000	4000.0000	8278.0000	-10.0000	3911.0000	3117.5000	7721.5000	-6470.5000	-1000.0000	-5130.5000	2434.5000	1151.0000	0.0000	0.0000
513.6719	-1093.5000	413.5000	-2896.0000	-6318.0000	-11012.5000	2068.0000	9507.0000	-9522.0000	265.0000	6071.0000	329.0000	-1199.0000	0.0000	-3931.0000	-2594.5000	-6564.0000	10351.5000	2180.5000	0.0000	-6519.5000	2321.0000	3997.0000	8279.0000	32.5000	3908.5000	3114.0000	7722.0000	-6407.0000	-997.5000	-5102.5000	2460.5000	1139.0000	0.0000	0.0000
515.6250	-1108.0000	398.5000	-2907.0000	-6324.0000	-11027.0000	2051.0000	9494.0000	-9527.0000	259.0000	6057.5000	313.5000	-1203.5000	0.0000	-3928.5000	-2603.0000	-6575.5000	10346.5000	2197.0000	0.0000	-6519.0000	2314.0000	3993.5000	8282.0000	77.0000	3906.0000	3108.5000	7725.0000	-6338.5000	-995.5000	-5087.5000	2491.0000	1128.5000	0.0000	0.0000
517.5781	-1120.0000	388.0000	-2915.5000	-6329.5000	-11034.5000	2037.0000	9487.5000	-9533.0000	254.0000	6046.5000	302.5000	-1209.5000	0.0000	-3930.0000	-2609.5000	-6583.5000	10339.5000	2215.0000	0.0000	-6521.5000	2306.0000	3987.5000	8282.0000	114.5000	3902.5000	3104.5000	7726.5000	-6272.0000	-995.0000	-5072.0000	2512.0000	1119.5000	0.0000	0.0000
519.5312	-1123.5000	384.0000	-2918.0000	-6334.5000	-11039.0000	2031.5000	9481.5000	-9535.0000	248.5000	6042.5000	296.5000	-1212.5000	0.0000	-3933.0000	-2615.0000	-6588.5000	10336.5000	2231.5000	0.0000	-6524.0000	2302.5000	3982.5000	8278.0000	141.5000	3897.0000	3100.5000	7722.0000	-6211.5000	-999.0000	-5056.0000	2507.0000	1106.0000	0.0000	0.0000
521.4844	-1122.0000	384.5000	-2919.0000	-6335.5000	-11038.5000	2035.5000	9480.5000	-9538.5000	247.5000	6043.0000	295.0000	-1215.0000	0.0000	-3940.5000	-2616.0000	-6588.5000	10333.0000	2248.0000	0.0000	-6529.5000	2299.5000	3982.5000	8272.5000	164.0000	3892.0000	3096.0000	7715.0000	-6158.5000	-1006.5000	-5044.5000	2479.5000	1085.5000	0.0000	0.0000
523.4375	-1117.5000	392.0000	-2917.5000	-6337.5000	-11035.0000	2042.0000	9481.0000	-9542.0000	244.5000	6048.5000	294.0000	-1218.0000	0.0000	-3949.0000	-2616.5000	-6588.0000	10332.0000	2259.0000	0.0000	-6537.0000	2299.5000	3984.0000	8262.5000	179.5000	3885.5000	3092.5000	7706.0000	-6096.0000	-1014.5000	-5037.0000	2448.5000	1056.0000	0.0000	0.0000
525.3906	-1112.5000	399.5000	-2914.5000	-6339.5000	-11031.5000	2051.5000	9481.0000	-9543.0000	242.5000	6055.5000	294.5000	-1222.0000	0.0000	-3960.5000	-2616.0000	-6585.0000	10329.0000	2267.5000	0.0000	-6546.5000	2300.0000	3982.5000	8250.0000	199.5000	3875.5000	3088.5000	7693.0000	-6020.0000	-1026.0000	-5022.5000	2413.0000	1016.0000	0.0000	0.0000
527.3438	-1112.0000	401.0000	-2915.0000	-6344.0000	-11032.5000	2054.5000	9477.0000	-9549.0000	238.5000	6056.0000	289.0000	-1227.0000	0.0000	-3971.5000	-2619.5000	-6587.0000	10325.0000	2272.5000	0.0000	-6556.5000	2296.0000	3979.5000	8239.5000	230.0000	3866.0000	3082.0000	7680.0000	-5872.0000	-1038.0000	-5004.5000	2366.0000	977.5000	0.0000	0.0000
529.2969	-1127.5000	386.0000	-2929.5000	-6359.0000	-11047.5000	2041.0000	9462.5000	-9565.0000	223.0000	6040.5000	270.0000	-1244.0000	0.0000	-3988.0000	-2634.5000	-6601.5000	10307.5000	2267.0000	0.0000	-6572.0000	2280.0000	3962.0000	8222.5000	245.5000	3851.0000	3067.0000	7663.0000	-5418.5000	-1052.5000	-5007.0000	2323.5000	935.0000	0.0000	0.0000
531.2500	-1193.5000	320.5000	-2995.0000	-6420.0000	-11112.0000	1972.5000	9399.0000	-9626.5000	162.0000	5976.5000	201.5000	-1303.5000	0.0000	-4044.5000	-2695.0000	-6670.0000	10247.5000	2217.0000	0.0000	-6628.5000	2218.5000	3897.5000	8166.0000	209.5000	3792.0000	3005.5000	7607.0000	-3666.0000	-1109.0000	-5062.0000	2274.0000	860.0000	0.0000	0.0000
533.2031	-1275.5000	239.5000	-3073.0000	-6494.0000	-11189.5000	1887.5000	9321.5000	-9700.0000	86.5000	5895.0000	118.0000	-1376.5000	0.0000	-4112.0000	-2769.5000	-6753.5000	10173.5000	2157.5000	0.0000	-6696.5000	2143.0000	3820.0000	8100.5000	170.5000	3720.5000	2932.5000	7540.0000	-1592.5000	-1176.5000	-5119.5000	2239.5000	783.5000	0.0000	0.0000
535.1562	-1293.5000	218.5000	-3086.0000	-6505.5000	-11204.5000	1867.5000	9308.0000	-9708.0000	79.5000	5876.0000	98.0000	-1384.5000	0.0000	-4116.0000	-2780.0000	-6775.0000	10163.5000	2159.0000	0.0000	-6700.0000	2131.5000	3807.0000	8099.0000	226.5000	3715.0000	2923.5000	7539.0000	-1418.0000	-1177.0000	-5113.5000	2261.5000	788.0000	0.0000	0.0000
537.1094	-1304.0000	210.0000	-3094.5000	-6509.5000	-11213.0000	1854.0000	9301.0000	-9711.0000	75.0000	5866.0000	84.5000	-1387.5000	0.0000	-4115.5000	-2785.0000	-6787.5000	10157.0000	2165.5000	0.0000	-6701.0000	2125.0000	3798.5000	8102.0000	306.0000	3713.0000	2921.0000	7542.0000	-1402.0000	-1175.5000	-5116.0000	2277.0000	804.5000	0.0000	0.0000
539.0625	-1312.5000	201.5000	-3103.0000	-6515.0000	-11222.0000	1845.5000	9294.0000	-9717.5000	68.0000	5857.0000	71.5000	-1394.0000	0.0000	-4122.5000	-2791.5000	-6799.0000	10150.0000	2164.5000	0.0000	-6706.5000	2117.5000	3790.5000	8096.0000	402.0000	3706.5000	2913.5000	7537.0000	-1359.0000	-1180.5000	-5102.5000	2289.5000	822.0000	0.0000	0.0000
541.0156	-1317.0000	198.5000	-3107.5000	-6522.0000	-11227.0000	1841.5000	9288.5000	-9726.5000	61.0000	5851.5000	61.0000	-1401.5000	0.0000	-4131.5000	-2796.5000	-6805.5000	10143.5000	2163.5000	0.0000	-6715.5000	2111.0000	3783.0000	8084.5000	520.0000	3697.5000	2905.5000	7525.5000	-1357.5000	-1189.5000	-5088.5000	2306.5000	843.5000	0.0000	0.0000
542.9688	-1319.0000	198.0000	-3111.0000	-6529.0000	-11227.5000	1844.0000	9283.0000	-9732.5000	55.5000	5852.0000	50.5000	-1411.5000	0.0000	-4145.5000	-2802.0000	-6808.0000	10136.0000	2156.5000	0.0000	-6727.0000	2105.5000	3774.0000	8070.0000	665.0000	3684.5000	2897.0000	7511.5000	-1338.0000	-1203.5000	-5106.0000	2305.5000	873.0000	0.0000	0.0000
544.9219	-1320.0000	198.5000	-3113.5000	-6537.0000	-11231.0000	1847.0000	9278.5000	-9742.0000	48.0000	5852.5000	40.5000	-1420.0000	0.0000	-4163.0000	-2807.5000	-6809.0000	10128.5000	2146.5000	0.0000	-6742.0000	2098.0000	3765.0000	8053.0000	830.5000	3671.5000	2886.0000	7493.0000	-1316.5000	-1222.0000	-5143.0000	2304.0000	925.0000	0.0000	0.0000
546.8750	-1325.5000	193.5000	-3122.0000	-6548.0000	-11239.5000	1843.0000	9267.5000	-9752.5000	37.0000	5846.5000	24.5000	-1433.5000	0.0000	-4182.0000	-2817.5000	-6815.5000	10114.0000	2133.5000	0.0000	-6758.0000	2087.0000	3752.5000	8033.5000	1043.5000	3654.0000	2871.5000	7473.0000	-1330.0000	-1239.5000	-5175.5000	2333.0000	1031.0000	0.0000	0.0000
548.8281	-1347.5000	171.0000	-3146.0000	-6572.5000	-11259.0000	1823.5000	9244.5000	-9778.0000	15.0000	5824.5000	-6.5000	-1459.0000	0.0000	-4207.5000	-2840.0000	-6838.5000	10091.0000	2106.5000	0.0000	-6783.0000	2063.0000	3727.0000	8007.5000	1440.5000	3628.0000	2846.0000	7445.5000	-1372.5000	-1266.0000	-5204.0000	2503.5000	1143.5000	0.0000	0.0000
550.7812	-1393.5000	127.0000	-3188.5000	-6613.5000	-11303.0000	1776.5000	9201.0000	-9819.5000	-25.5000	5779.5000	-60.5000	-1499.0000	0.0000	-4247.0000	-2882.0000	-6884.0000	10050.5000	2064.0000	0.0000	-6821.0000	2019.5000	3684.5000	7971.0000	2275.0000	3588.0000	2806.0000	7408.0000	-1449.0000	-1301.5000	-5245.5000	2859.0000	1124.5000	0.0000	0.0000
552.7344	-1435.0000	84.0000	-3228.0000	-6648.0000	-11342.0000	1732.0000	9162.5000	-9852.5000	-59.5000	5738.5000	-113.0000	-1532.5000	0.0000	-4276.0000	-2917.0000	-6923.5000	10017.0000	2030.0000	0.0000	-6848.5000	1984.5000	3648.0000	7945.0000	2863.5000	3556.5000	2772.5000	7382.5000	-1546.5000	-1328.5000	-5270.5000	3291.5000	1113.0000	0.0000	0.0000
554.6875	-1452.0000	64.0000	-3241.5000	-6657.5000	-11358.0000	1711.5000	9150.5000	-9861.0000	-68.5000	5720.0000	-139.5000	-1540.5000	0.0000	-4277.5000	-2926.5000	-6939.5000	10008.5000	2019.0000	0.0000	-6848.5000	1975.0000	3637.5000	7945.0000	2782.5000	3552.0000	2764.5000	7384.5000	-1625.5000	-1330.0000	-5255.5000	3676.5000	1131.5000	0.0000	0.0000
556.6406	-1473.0000	45.0000	-3258.0000	-6671.0000	-11376.0000	1688.0000	9131.5000	-9873.5000	-79.5000	5699.5000	-146.5000	-1552.5000	0.0000	-4286.5000	-2941.0000	-6960.5000	9998.5000	2001.5000	0.0000	-6855.0000	1963.5000	3624.0000	7944.0000	2740.0000	3544.0000	2753.0000	7381.0000	-1633.0000	-1335.0000	-5242.0000	4013.5000	1156.5000	0.0000	0.0000
558.5938	-1483.5000	33.5000	-3267.5000	-6677.5000	-11383.0000	1677.0000	9123.5000	-9880.0000	-87.5000	5690.0000	-149.0000	-1559.0000	0.0000	-4293.5000	-2948.5000	-6971.5000	9989.0000	1987.0000	0.0000	-6859.0000	1955.5000	3613.5000	7936.5000	2711.5000	3538.0000	2747.5000	7379.0000	-1569.5000	-1339.5000	-5241.5000	4141.5000	1188.0000	0.0000	0.0000
560.5469	-1486.0000	33.0000	-3271.0000	-6682.0000	-11387.5000	1675.0000	9119.0000	-9885.0000	-91.5000	5686.5000	-148.5000	-1563.0000	0.0000	-4299.0000	-2953.5000	-6979.0000	9983.0000	1966.0000	0.0000	-6867.5000	1951.5000	3608.5000	7927.5000	2687.0000	3528.5000	2739.5000	7367.0000	-1480.5000	-1346.5000	-5245.0000	4209.5000	1205.0000	0.0000	0.0000
562.5000	-1483.0000	34.5000	-3270.0000	-6683.0000	-11384.5000	1678.5000	9117.0000	-9887.0000	-95.5000	5690.5000	-144.5000	-1568.5000	0.0000	-4308.5000	-2955.0000	-6980.0000	9982.5000	1945.5000	0.0000	-6873.5000	1952.5000	3607.5000	7921.0000	2708.5000	3523.0000	2737.0000	7357.0000	-1449.5000	-1355.0000	-5252.0000	4217.0000	1218.5000	0.0000	0.0000
564.4531	-1475.0000	43.0000	-3267.0000	-6685.0000	-11380.5000	1690.0000	9119.0000	-9889.0000	-97.0000	5698.5000	-138.0000	-1571.5000	0.0000	-4317.0000	-2953.5000	-6978.0000	9981.0000	1918.5000	0.0000	-6880.0000	1953.0000	3607.0000	7912.0000	2753.0000	3518.5000	2734.5000	7346.5000	-1456.0000	-1361.5000	-5271.0000	4209.0000	1237.0000	0.0000	0.0000
566.4062	-1465.0000	54.0000	-3260.5000	-6681.5000	-11374.0000	1702.0000	9123.0000	-9887.5000	-94.0000	5708.5000	-127.5000	-1570.0000	0.0000	-4322.5000	-2949.5000	-6971.5000	9980.5000	1893.0000	0.0000	-6884.5000	1955.0000	3607.0000	7905.5000	2746.5000	3515.5000	2734.0000	7339.0000	-1433.0000	-1367.0000	-5292.0000	4179.0000	1237.5000	0.0000	0.0000
568.3594	-1457.5000	63.5000	-3252.0000	-6675.0000	-11365.0000	1711.0000	9130.0000	-9881.0000	-87.5000	5717.5000	-117.0000	-1565.5000	0.0000	-4322.0000	-2943.5000	-6964.0000	9984.5000	1886.0000	0.0000	-6883.0000	1961.0000	3611.0000	7905.0000	2730.0000	3516.0000	2736.0000	7337.5000	-1486.0000	-1366.5000	-5296.5000	4144.0000	1230.0000	0.0000	0.0000
570.3125	-1455.5000	64.0000	-3250.0000	-6671.5000	-11363.0000	1711.5000	9132.0000	-9878.5000	-84.0000	5718.5000	-113.5000	-1563.5000	0.0000	-4319.0000	-2941.5000	-6964.0000	9989.0000	1907.0000	0.0000	-6879.5000	1964.5000	3614.0000	7909.0000	2704.0000	3519.5000	2740.5000	7340.5000	-1512.5000	-1362.0000	-5295.5000	4125.5000	1214.0000	0.0000	0.0000
572.2656	-1466.5000	54.0000	-3257.5000	-6675.5000	-11370.0000	1700.0000	9125.0000	-9882.5000	-88.0000	5708.0000	-122.0000	-1568.5000	0.0000	-4319.0000	-2946.5000	-6975.5000	9988.5000	1951.0000	0.0000	-6875.0000	1961.5000	3611.5000	7913.5000	2715.0000	3521.5000	2739.0000	7344.0000	-1444.0000	-1357.5000	-5290.5000	4112.0000	1194.0000	0.0000	0.0000
574.2188	-1475.0000	45.5000	-3264.5000	-6677.0000	-11377.5000	1689.5000	9120.0000	-9884.0000	-89.5000	5698.5000	-128.0000	-1567.0000	0.0000	-4314.5000	-2949.5000	-6983.5000	9986.5000	1978.5000	0.0000	-6872.5000	1958.5000	3610.0000	7918.0000	2753.0000	3524.0000	2740.5000	7353.5000	-1455.5000	-1350.0000	-5269.5000	4104.5000	1177.5000	0.0000	0.0000
576.1719	-1477.5000	40.0000	-3263.5000	-6673.0000	-11378.0000	1685.0000	9120.0000	-9879.0000	-84.0000	5695.0000	-128.5000	-1563.0000	0.0000	-4308.0000	-2947.5000	-6986.5000	9984.5000	1947.5000	0.0000	-6868.5000	1956.0000	3608.0000	7924.0000	2757.5000	3527.5000	2744.5000	7360.0000	-1508.0000	-1343.5000	-5235.5000	4124.0000	1171.0000	0.0000	0.0000
578.1250	-1479.5000	38.0000	-3263.5000	-6672.0000	-11378.0000	1681.0000	9119.0000	-9877.5000	-84.5000	5695.0000	-130.0000	-1560.0000	0.0000	-4305.0000	-2949.0000	-6990.5000	9982.5000	1876.5000	0.0000	-6868.0000	1955.0000	3605.5000	7926.0000	2772.5000	3528.5000	2742.0000	7360.0000	-1462.5000	-1342.5000	-5218.5000	4139.5000	1160.0000	0.0000	0.0000
580.0781	-1480.5000	38.5000	-3264.5000	-6673.5000	-11379.0000	1680.5000	9117.5000	-9879.0000	-85.0000	5696.5000	-131.0000	-1561.5000	0.0000	-4308.5000	-2950.0000	-6991.0000	9983.5000	1802.0000	0.0000	-6869.5000	1955.5000	3605.5000	7926.0000	2754.5000	3525.5000	2740.0000	7357.5000	-1368.0000	-1343.5000	-5222.0000	4171.0000	1152.0000	0.0000	0.0000
582.0312	-1480.0000	38.0000	-3267.0000	-6677.0000	-11378.5000	1682.5000	9116.0000	-9883.0000	-88.0000	5696.5000	-132.5000	-1567.0000	0.0000	-4318.0000	-2954.5000	-6992.5000	9982.5000	1743.0000	0.0000	-6872.0000	1956.5000	3606.0000	7921.5000	2765.0000	3520.0000	2737.5000	7351.5000	-1286.0000	-1349.5000	-5233.0000	4228.5000	1134.0000	0.0000	0.0000
583.9844	-1487.0000	34.0000	-3275.5000	-6690.5000	-11388.0000	1679.0000	9105.0000	-9898.0000	-103.0000	5690.0000	-143.0000	-1583.5000	0.0000	-4338.5000	-2967.0000	-7002.0000	9971.0000	1685.0000	0.0000	-6889.5000	1946.0000	3593.5000	7902.5000	2985.5000	3503.5000	2724.0000	7330.5000	-1223.5000	-1368.0000	-5245.5000	4360.5000	1091.5000	0.0000	0.0000
585.9375	-1474.5000	47.5000	-3265.5000	-6685.0000	-11377.0000	1693.0000	9113.5000	-9895.0000	-98.5000	5701.0000	-133.5000	-1581.0000	0.0000	-4341.0000	-2961.0000	-6991.5000	9970.5000	1653.5000	0.0000	-6892.5000	1949.5000	3597.0000	7894.0000	2815.0000	3504.0000	2727.5000	7325.0000	-1199.0000	-1371.0000	-5215.0000	4433.0000	1057.0000	0.0000	0.0000
587.8906	-1462.5000	59.5000	-3256.5000	-6677.5000	-11366.5000	1707.5000	9122.5000	-9888.0000	-92.0000	5713.5000	-124.0000	-1575.5000	0.0000	-4337.5000	-2951.5000	-6977.5000	9976.5000	1640.5000	0.0000	-6891.0000	1956.0000	3603.0000	7895.0000	2523.5000	3507.0000	2731.5000	7323.0000	-1119.0000	-1368.0000	-5163.5000	4460.5000	1031.0000	0.0000	0.0000
589.8438	-1470.0000	52.5000	-3263.0000	-6684.5000	-11373.0000	1700.0000	9114.5000	-9892.5000	-98.5000	5706.0000	-133.0000	-1581.5000	0.0000	-4345.0000	-2959.5000	-6986.5000	9970.0000	1623.5000	0.0000	-6898.5000	1946.5000	3594.5000	7887.0000	2749.0000	3498.5000	2721.5000	7317.0000	-1076.0000	-1377.0000	-5169.0000	4435.5000	991.5000	0.0000	0.0000
591.7969	-1478.5000	44.0000	-3269.0000	-6687.0000	-11380.0000	1690.5000	9110.0000	-9895.5000	-101.0000	5699.5000	-141.5000	-1584.0000	0.0000	-4345.0000	-2965.0000	-6993.5000	9964.0000	1609.5000	0.0000	-6899.0000	1939.0000	3591.5000	7887.0000	2772.5000	3494.0000	2717.5000	7318.5000	-959.0000	-1377.5000	-5166.5000	4454.0000	951.5000	0.0000	0.0000
593.7500	-1483.5000	38.5000	-3271.0000	-6684.5000	-11383.5000	1682.5000	9109.5000	-9892.5000	-98.0000	5695.5000	-146.5000	-1579.0000	0.0000	-4337.5000	-2965.5000	-6994.5000	9967.5000	1599.5000	0.0000	-6891.5000	1939.5000	3594.5000	7899.0000	2731.0000	3499.5000	2720.0000	7330.5000	-789.5000	-1369.0000	-5150.0000	4289.0000	939.0000	0.0000	0.0000
595.7031	-1429.5000	90.5000	-3213.0000	-6623.5000	-11326.5000	1734.0000	9168.0000	-9831.0000	-35.5000	5749.0000	-91.0000	-1516.5000	0.0000	-4273.0000	-2904.5000	-6938.5000	10031.5000	1688.0000	0.0000	-6821.0000	1999.5000	3656.5000	7971.5000	2809.5000	3566.5000	2785.5000	7406.0000	-754.0000	-1298.0000	-5059.5000	2463.0000	996.5000	0.0000	0.0000
597.6562	-1428.0000	92.0000	-3210.0000	-6618.0000	-11324.0000	1733.0000	9172.0000	-9824.5000	-29.5000	5749.5000	-90.5000	-1511.0000	0.0000	-4264.5000	-2900.0000	-6936.5000	10040.0000	1733.0000	0.0000	-6811.5000	2004.5000	3661.5000	7983.5000	2851.0000	3576.0000	2795.5000	7420.0000	-791.0000	-1286.5000	-5013.5000	2232.5000	995.5000	0.0000	0.0000
599.6094	-1431.0000	86.5000	-3215.0000	-6624.5000	-11329.0000	1729.0000	9165.5000	-9829.0000	-36.0000	5744.5000	-97.0000	-1515.5000	0.0000	-4271.5000	-2906.5000	-6940.5000	10032.0000	1703.5000	0.0000	-6818.0000	1993.5000	3655.5000	7977.0000	2888.0000	3570.0000	2789.0000	7411.5000	-896.5000	-1293.0000	-5007.0000	2479.5000	985.5000	0.0000	0.0000
601.5625	-1427.0000	91.5000	-3213.0000	-6627.5000	-11326.5000	1736.0000	9167.0000	-9831.5000	-36.5000	5750.5000	-96.0000	-1517.0000	0.0000	-4276.0000	-2905.5000	-6937.5000	10029.0000	1668.0000	0.0000	-6826.0000	1988.5000	3651.5000	7967.5000	2929.0000	3565.5000	2785.5000	7407.5000	-1183.5000	-1299.5000	-5045.5000	2834.0000	977.0000	0.0000	0.0000
603.5156	-1422.0000	98.0000	-3210.5000	-6630.0000	-11325.0000	1743.5000	9167.0000	-9834.5000	-40.0000	5755.5000	-95.5000	-1524.0000	0.0000	-4283.0000	-2908.0000	-6935.0000	10023.0000	1647.0000	0.0000	-6836.5000	1983.0000	3649.0000	7954.5000	2920.0000	3556.0000	2778.5000	7387.5000	-1262.5000	-1311.0000	-5147.0000	3139.5000	964.0000	0.0000	0.0000
605.4688	-1415.0000	107.5000	-3206.5000	-6628.5000	-11319.5000	1754.0000	9170.0000	-9836.5000	-40.0000	5763.5000	-93.0000	-1525.5000	0.0000	-4290.5000	-2906.0000	-6928.5000	10021.5000	1631.5000	0.0000	-6839.0000	1987.0000	3650.0000	7946.0000	2890.5000	3551.0000	2776.5000	7375.0000	-1258.5000	-1317.5000	-5214.5000	3251.5000	944.5000	0.0000	0.0000
607.4219	-1410.5000	111.0000	-3204.5000	-6630.5000	-11317.5000	1760.0000	9170.0000	-9838.5000	-41.0000	5769.5000	-92.0000	-1528.5000	0.0000	-4296.5000	-2905.5000	-6926.5000	10023.0000	1623.0000	0.0000	-6839.0000	1992.5000	3652.5000	7941.0000	2851.5000	3550.0000	2776.0000	7370.5000	-1146.5000	-1322.0000	-5251.0000	3236.5000	924.0000	0.0000	0.0000
609.3750	-1407.5000	112.5000	-3203.5000	-6629.5000	-11315.5000	1761.5000	9171.5000	-9837.0000	-39.0000	5769.5000	-91.5000	-1526.5000	0.0000	-4295.5000	-2905.0000	-6924.0000	10028.0000	1622.0000	0.0000	-6835.0000	1997.0000	3658.0000	7947.0000	2849.0000	3552.0000	2779.5000	7373.0000	-1062.0000	-1317.5000	-5342.5000	3206.5000	905.0000	0.0000	0.0000
611.3281	-1464.0000	55.0000	-3258.5000	-6682.5000	-11371.0000	1702.0000	9115.0000	-9890.0000	-94.0000	5711.0000	-150.0000	-1579.0000	0.0000	-4346.0000	-2959.0000	-6981.5000	9971.5000	1562.0000	0.0000	-6886.0000	1941.5000	3603.0000	7897.5000	4518.0000	3501.0000	2726.0000	7323.0000	-1072.0000	-1367.5000	-5500.0000	3140.5000	834.0000	0.0000	0.0000
613.2812	-1287.5000	231.0000	-3078.5000	-6497.0000	-11194.0000	1879.5000	9296.5000	-9705.0000	92.5000	5890.0000	30.0000	-1393.5000	0.0000	-4158.0000	-2776.0000	-6800.5000	10149.5000	1735.0000	0.0000	-6703.0000	2117.0000	3777.0000	8081.5000	180.5000	3688.0000	2911.5000	7512.0000	-903.0000	-1179.5000	-6229.0000	3331.5000	1001.0000	0.0000	0.0000
615.2344	-1258.5000	258.5000	-3047.0000	-6463.0000	-11163.0000	1904.5000	9329.0000	-9669.0000	128.5000	5918.0000	60.0000	-1354.5000	0.0000	-4120.0000	-2742.0000	-6770.5000	10185.0000	1769.0000	0.0000	-6662.0000	2150.5000	3808.0000	8124.5000	-259.0000	3724.0000	2947.5000	7552.5000	-829.0000	-1139.5000	-6782.5000	3375.0000	1025.0000	0.0000	0.0000
617.1875	-1282.0000	234.0000	-3069.5000	-6481.0000	-11184.0000	1878.5000	9308.0000	-9684.5000	110.0000	5894.0000	35.5000	-1373.0000	0.0000	-4136.0000	-2763.0000	-6795.0000	10166.5000	1747.5000	0.0000	-6676.0000	2129.5000	3788.0000	8112.0000	-226.5000	3706.5000	2928.5000	7542.0000	-811.0000	-1155.5000	-6312.0000	3360.0000	1008.5000	0.0000	0.0000
619.1406	-1293.5000	219.5000	-3083.5000	-6495.0000	-11197.5000	1864.5000	9295.5000	-9697.5000	96.5000	5881.5000	18.0000	-1387.0000	0.0000	-4150.0000	-2778.0000	-6807.5000	10151.5000	1731.0000	0.0000	-6690.0000	2117.0000	3771.5000	8099.0000	-165.0000	3693.0000	2912.5000	7528.5000	-551.0000	-1170.5000	-6266.5000	3339.0000	1016.0000	0.0000	0.0000
621.0938	-1273.0000	241.0000	-3061.0000	-6477.0000	-11178.0000	1887.5000	9315.0000	-9680.5000	116.0000	5903.0000	38.0000	-1368.5000	0.0000	-4133.5000	-2758.5000	-6785.0000	10170.0000	1747.0000	0.0000	-6672.0000	2137.0000	3789.0000	8115.5000	30.0000	3709.0000	2931.0000	7542.5000	-1138.5000	-1154.0000	-6392.0000	3349.0000	1050.5000	0.0000	0.0000
623.0469	-1112.0000	403.5000	-2904.5000	-6321.0000	-11019.0000	2051.5000	9471.0000	-9526.0000	271.0000	6065.0000	196.5000	-1215.5000	0.0000	-3984.0000	-2601.5000	-6623.5000	10324.0000	1889.5000	0.0000	-6517.5000	2293.5000	3947.5000	8265.0000	421.0000	3860.0000	3084.5000	7691.0000	-5802.5000	-1004.0000	-6301.5000	3494.0000	1204.5000	0.0000	0.0000
625.0000	-1071.5000	445.0000	-2867.5000	-6289.0000	-10981.5000	2093.0000	9507.0000	-9493.5000	302.5000	6106.5000	232.0000	-1184.0000	0.0000	-3955.0000	-2567.0000	-6583.5000	10358.5000	1901.0000	0.0000	-6488.5000	2328.0000	3984.5000	8281.0000	615.0000	3890.5000	3116.5000	7714.0000	-6846.5000	-977.5000	-6300.5000	3511.5000	1218.5000	0.0000	0.0000
626.9531	-1070.5000	446.0000	-2869.0000	-6293.0000	-10981.0000	2097.5000	9504.0000	-9500.0000	299.0000	6107.0000	228.5000	-1191.5000	0.0000	-3962.5000	-2570.0000	-6579.0000	10353.5000	1896.5000	0.0000	-6495.5000	2325.5000	3980.0000	8271.5000	677.5000	3884.0000	3112.0000	7700.5000	-6748.0000	-985.5000	-6324.0000	3495.5000	1191.0000	0.0000	0.0000
628.9062	-1072.5000	444.0000	-2872.5000	-6298.5000	-10984.0000	2094.5000	9500.0000	-9504.5000	293.5000	6104.5000	226.0000	-1195.5000	0.0000	-3968.0000	-2574.5000	-6580.5000	10350.0000	1871.5000	0.0000	-6498.5000	2321.0000	3974.0000	8270.0000	693.0000	3879.5000	3107.5000	7697.0000	-6594.0000	-991.0000	-6336.5000	3487.5000	1157.0000	0.0000	0.0000
630.8594	-1080.5000	434.0000	-2880.5000	-6304.5000	-10991.5000	2085.0000	9493.0000	-9509.0000	288.5000	6096.0000	216.0000	-1200.0000	0.0000	-3973.0000	-2581.0000	-6587.0000	10343.0000	1834.0000	0.0000	-6500.5000	2314.0000	3966.0000	8271.0000	673.5000	3873.5000	3101.5000	7697.0000	-6361.5000	-994.0000	-6340.5000	3485.0000	1131.5000	0.0000	0.0000
632.8125	-1081.0000	432.0000	-2876.0000	-6299.0000	-10991.0000	2082.5000	9495.5000	-9499.5000	295.5000	6095.0000	217.0000	-1192.0000	0.0000	-3962.5000	-2576.0000	-6585.0000	10347.0000	1837.0000	0.0000	-6491.0000	2319.0000	3963.0000	8284.5000	639.0000	3881.0000	3107.0000	7705.0000	-6450.5000	-985.0000	-6326.5000	3495.5000	1120.0000	0.0000	0.0000
634.7656	-1100.5000	410.0000	-2893.0000	-6312.0000	-11008.5000	2058.0000	9480.5000	-9510.5000	282.0000	6075.5000	199.5000	-1202.0000	0.0000	-3970.0000	-2591.5000	-6603.0000	10333.5000	1837.0000	0.0000	-6500.0000	2302.5000	3944.0000	8281.0000	571.0000	3869.5000	3092.5000	7702.0000	-6012.5000	-994.0000	-6330.0000	3487.5000	1101.5000	0.0000	0.0000
636.7188	-1167.5000	342.0000	-2958.5000	-6375.0000	-11074.0000	1988.0000	9417.5000	-9570.5000	220.5000	6006.0000	130.5000	-1261.0000	0.0000	-4029.0000	-2655.5000	-6671.0000	10270.0000	1790.5000	0.0000	-6556.5000	2239.0000	3880.5000	8222.0000	481.0000	3807.5000	3031.5000	7643.5000	-4190.0000	-1052.0000	-6386.5000	3426.5000	1050.5000	0.0000	0.0000
638.6719	-1206.5000	304.0000	-2995.5000	-6412.5000	-11113.5000	1947.5000	9380.5000	-9607.0000	184.0000	5968.0000	89.5000	-1299.5000	0.0000	-4066.5000	-2693.5000	-6710.0000	10233.5000	1759.0000	0.0000	-6593.0000	2202.0000	3836.5000	8187.5000	427.5000	3770.0000	2993.5000	7603.5000	-3135.5000	-1088.0000	-6422.5000	3387.5000	1069.0000	0.0000	0.0000
640.6250	-1230.0000	278.0000	-3021.0000	-6438.5000	-11138.5000	1924.0000	9354.5000	-9633.5000	157.5000	5942.5000	64.0000	-1327.0000	0.0000	-4093.5000	-2719.5000	-6736.5000	10206.5000	1741.0000	0.0000	-6620.0000	2176.5000	3805.0000	8156.0000	385.5000	3743.0000	2966.0000	7576.0000	-2927.5000	-1115.5000	-6452.5000	3357.0000	1619.0000	0.0000	0.0000
642.5781	-1184.5000	323.0000	-2980.5000	-6399.5000	-11096.0000	1969.5000	9395.0000	-9595.0000	195.0000	5988.0000	104.5000	-1289.5000	0.0000	-4057.5000	-2678.0000	-6694.0000	10245.5000	1774.5000	0.0000	-6581.5000	2218.5000	3843.5000	8188.5000	408.5000	3780.0000	3004.5000	7612.5000	-2895.5000	-1079.5000	-6422.0000	3388.0000	514.5000	0.0000	0.0000
644.5312	-1175.5000	334.0000	-2974.0000	-6397.5000	-11089.5000	1982.0000	9398.5000	-9595.0000	197.5000	5996.5000	109.5000	-1291.5000	0.0000	-4060.5000	-2674.0000	-6685.0000	10247.5000	1776.5000	0.0000	-6582.0000	2226.0000	3845.0000	8181.5000	393.0000	3779.0000	3007.5000	7603.5000	-2923.0000	-1081.5000	-6432.0000	3375.5000	508.0000	0.0000	0.0000
646.4844	-1174.5000	336.5000	-2976.0000	-6403.0000	-11090.0000	1985.0000	9395.5000	-9600.0000	192.5000	5997.0000	107.5000	-1298.0000	0.0000	-4069.5000	-2677.5000	-6685.0000	10244.5000	1773.0000	0.0000	-6589.0000	2225.5000	3839.0000	8170.0000	375.5000	3772.5000	3002.5000	7591.0000	-2950.0000	-1088.5000	-6447.5000	3357.0000	684.5000	0.0000	0.0000
648.4375	-1175.0000	334.0000	-2981.0000	-6408.0000	-11092.0000	1981.5000	9391.0000	-9607.5000	186.0000	5996.5000	103.0000	-1304.5000	0.0000	-4078.0000	-2681.0000	-6688.0000	10239.0000	1771.0000	0.0000	-6595.0000	2223.5000	3833.0000	8162.0000	362.5000	3766.5000	2997.0000	7583.5000	-2972.0000	-1096.0000	-6456.5000	3345.0000	859.5000	0.0000	0.0000
650.3906	-1203.5000	308.0000	-3004.5000	-6433.0000	-11117.5000	1956.5000	9366.5000	-9630.0000	163.5000	5970.0000	76.0000	-1328.5000	0.0000	-4100.0000	-2706.5000	-6713.5000	10212.0000	1754.5000	0.0000	-6615.0000	2199.0000	3805.0000	8139.5000	340.0000	3742.5000	2974.0000	7558.0000	-3003.5000	-1119.0000	-6475.0000	3321.5000	1563.0000	0.0000	0.0000
652.3438	-1244.5000	265.5000	-3044.0000	-6470.5000	-11159.0000	1911.0000	9327.5000	-9664.5000	124.5000	5927.5000	35.0000	-1363.0000	0.0000	-4134.0000	-2745.5000	-6756.0000	10173.5000	1727.0000	0.0000	-6647.5000	2160.0000	3764.0000	8106.5000	308.5000	3704.5000	2935.5000	7521.0000	-3043.5000	-1154.0000	-6505.0000	3290.0000	2650.0000	0.0000	0.0000
654.2969	-1274.5000	232.5000	-3070.0000	-6492.0000	-11185.5000	1879.0000	9300.5000	-9685.5000	102.0000	5896.5000	7.5000	-1384.5000	0.0000	-4152.5000	-2770.0000	-6783.5000	10149.5000	1709.5000	0.0000	-6665.5000	2133.5000	3736.0000	8092.5000	298.5000	3682.0000	2913.0000	7523.5000	-3062.5000	-1172.5000	-6517.5000	3276.5000	3283.5000	0.0000	0.0000
656.2500	-1285.5000	220.0000	-3079.5000	-6497.5000	-11196.5000	1863.5000	9292.0000	-9689.5000	96.0000	5885.0000	-5.0000	-1390.0000	0.0000	-4153.0000	-2778.5000	-6794.0000	10143.0000	1705.5000	0.0000	-6666.5000	2123.5000	3725.5000	8091.5000	302.0000	3677.0000	2907.5000	7515.5000	-3068.5000	-1174.0000	-6515.5000	3279.0000	3467.0000	0.0000	0.0000
658.2031	-1287.0000	216.0000	-3080.5000	-6497.5000	-11198.5000	1860.0000	9292.0000	-9688.5000	96.5000	5884.5000	-7.5000	-1389.0000	0.0000	-4152.0000	-2779.5000	-6795.5000	10143.0000	1702.5000	0.0000	-6664.0000	2122.5000	3723.5000	8093.5000	305.5000	3679.0000	2908.5000	7513.0000	-3070.5000	-1172.0000	-6513.5000	3281.0000	3475.5000	0.0000	0.0000
660.1562	-1285.5000	219.0000	-3078.5000	-6496.0000	-11196.5000	1863.5000	9294.5000	-9687.0000	96.5000	5885.0000	-7.0000	-1388.5000	0.0000	-4151.5000	-2776.5000	-6792.0000	10145.0000	1702.5000	0.0000	-6662.0000	2125.5000	3725.5000	8092.5000	304.0000	3679.0000	2909.5000	7512.0000	-3078.5000	-1171.0000	-6515.0000	3279.0000	3453.0000	0.0000	0.0000
662.1094	-1277.5000	226.5000	-3074.0000	-6494.0000	-11192.0000	1871.5000	9295.5000	-9687.0000	99.0000	5892.0000	-2.0000	-1387.0000	0.0000	-4152.0000	-2773.5000	-6785.0000	10147.0000	1697.5000	0.0000	-6660.5000	2129.5000	3728.5000	8089.5000	296.5000	3679.5000	2911.0000	7505.5000	-3090.0000	-1172.0000	-6522.0000	3272.5000	3426.5000	0.0000	0.0000
664.0625	-1266.5000	236.0000	-3069.0000	-6492.0000	-11182.5000	1883.0000	9301.0000	-9687.5000	101.0000	5900.0000	3.0000	-1387.0000	0.0000	-4154.5000	-2770.5000	-6775.0000	10148.5000	1698.0000	0.0000	-6661.0000	2135.5000	3733.5000	8083.5000	285.5000	3681.0000	2914.0000	7494.0000	-3104.0000	-1173.5000	-6531.5000	3261.5000	3397.0000	0.0000	0.0000
666.0156	-1258.0000	246.5000	-3062.0000	-6490.0000	-11176.5000	1894.5000	9304.0000	-9688.0000	103.0000	5908.5000	7.0000	-1388.0000	0.0000	-4156.0000	-2764.0000	-6766.5000	10150.5000	1696.5000	0.0000	-6660.5000	2141.0000	3737.0000	8079.0000	274.5000	3681.0000	2915.5000	7492.5000	-3119.0000	-1175.0000	-6541.0000	3250.0000	3363.0000	0.0000	0.0000
667.9688	-1255.0000	251.5000	-3059.5000	-6490.5000	-11174.0000	1899.5000	9306.0000	-9688.5000	104.5000	5913.0000	9.5000	-1387.5000	0.0000	-4157.0000	-2761.5000	-6763.5000	10152.5000	1695.5000	0.0000	-6661.0000	2142.0000	3739.0000	8077.5000	268.0000	3680.5000	2917.0000	7506.5000	-3127.5000	-1177.5000	-6545.5000	3245.0000	3342.0000	0.0000	0.0000
669.9219	-1254.5000	250.0000	-3060.0000	-6490.5000	-11173.5000	1900.5000	9304.5000	-9687.0000	104.0000	5912.0000	8.5000	-1388.5000	0.0000	-4156.5000	-2762.5000	-6763.0000	10151.5000	1694.0000	0.0000	-6660.5000	2140.5000	3738.5000	8076.5000	269.5000	3680.0000	2916.5000	7521.5000	-3131.5000	-1176.0000	-6545.5000	3247.5000	3333.5000	0.0000	0.0000
671.8750	-1260.0000	244.5000	-3062.0000	-6491.5000	-11177.0000	1891.5000	9302.5000	-9686.5000	106.0000	5907.5000	2.0000	-1388.0000	0.0000	-4154.0000	-2765.5000	-6767.0000	10149.5000	1696.0000	0.0000	-6658.5000	2136.5000	3737.0000	8081.0000	277.0000	3680.5000	2916.0000	7544.5000	-3128.0000	-1175.0000	-6538.5000	3251.5000	3329.5000	0.0000	0.0000
